BEGIN IONS
TITLE=Spectrum 1AVVQDPALKPLALVYGEATSR.csv DRIFT_TIME=11.2327 11.0954 11.2467 11.2877 11.3053 11.2152 11.1838 11.2084 11.4142 11.3938 11.2818 11.3057 11.3742 11.3868 11.5282 11.4278 11.4115 11.3939 11.4783 11.526 11.5514 11.5259 11.8005 11.3961 11.4941 11.4749 11.7034 11.3977 11.4483 11.4203 11.9249 11.5248 11.4513 11.7193 11.8121 11.6564 12.5227 11.6673 11.9304 11.963 12.173 12.3018 12.3642 14.1219 12.7876 12.2712 11.9989 13.1035 17.1185 13.5998 12.8323 13.009 14.2083 13.9825 18.1917 18.5355 14.249 15.755299 12.9611 13.6096 13.0209 14.4728 13.7243 13.687 13.6752 13.7085 13.6745 17.567 16.7862 18.7349 15.239 18.2997 19.783 19.599 15.1602 15.198799 15.1591 22.0086 21.8057 20.0988 24.3672 18.5479 14.7778 18.6672 18.6516 18.8583 22.8668 19.1472 23.5215 23.061 27.9159 23.9961 24.9667 18.7417 18.96 17.0827 17.2025 27.7432 28.0495 25.3452 25.4582 26.1132 21.2288 21.3988 22.0663 27.9044 17.4149 27.8524 27.7657 27.2752 24.2225 22.0228 30.0183 22.6477 22.6797 23.1724 24.0207 24.9819 28.5944 30.5956 30.0181 19.6009 19.9191 19.6003 19.5093 20.5181 20.6421 20.4832 31.5904 36.677 20.721 31.654099 31.364899 25.4334 33.9093 12.1665 23.1014 28.2481 26.7224 33.2061 36.3793 22.5434 22.8163 22.7156 32.7224 22.3183 32.7422 22.3876 33.7856 33.6913 25.6314 12.3858 12.4018 12.4352 14.103 14.4255 39.35 12.4574 35.1352 12.3883 35.3433 16.8708 23.8479 12.9012 12.7844 26.0837 29.507 26.9542 28.7521 35.7897 12.6921 12.727 27.0182 24.1841 17.0119 23.846 24.1874 39.5579 13.1133 13.0303 12.9568 31.2485 31.2682 31.257797 31.355 30.9246 12.3551 12.447 12.5557 36.8741 17.505 24.4673 13.1079 16.5583 24.0781 16.3412 38.6908 16.3022 12.678 13.2251 12.7864 13.6863 13.0535 14.038 29.1903 26.382 38.4086 13.3812 12.8227 40.9501 13.2298 13.0953 39.9485 25.3318 19.322 13.2903 13.1956 13.9075 13.2342 14.0613 31.660698 31.8138 32.0603 42.0241 31.938599 32.4379 13.3695 13.2413 13.3126 13.1481 23.9222 13.3864 24.404 24.2961 24.2073 13.9523 13.7093 41.5286 29.2785 41.3496 34.1392 34.5235 33.9545 33.9696 34.2243 13.8183 33.6931 14.0576 14.0643 13.7996 13.6787 41.8689 49.6152 27.6314 42.0647 49.1924 27.9437 44.9139 29.2664 44.5869 33.4441 32.4248 34.1698 37.6797 33.8733 34.0405 13.4548 45.2386 14.5838 33.9676 14.538 25.9835 25.5887 26.1572 13.5153 35.6065 35.6867 35.6535 13.9661 47.3066 15.430599 35.5202 15.499001 35.4539 32.237 31.7705 31.8919 13.9589 47.689 14.4519 45.9689 31.318298 34.8568 34.1817 21.856 21.6341 21.6462 48.1845 15.1651 24.0597 47.5861 49.2 35.1625 35.0449 24.9277 35.0363 24.71 24.5766 37.2744 37.1414 36.929 36.7354 36.8136 55.0482 25.5078 37.1372 27.7473 36.6327 29.6031 50.2078 50.0648 25.9714 16.1219 29.853 29.7685 39.5052 30.0417 36.3404 36.1107 26.9213 26.6832 34.8453 40.7009 34.9557 39.893 35.3303 39.694 39.6372 35.7345 38.6757 39.3564 38.7201 38.422 39.414 37.9977 33.3963 33.265 37.6188 34.6232 36.8169 43.0559 36.4518 42.3951 43.1926 53.8564 38.1202 38.001 37.9913 38.7771 38.0164 59.5954 58.9422 59.0429 60.6569 60.3877 36.75 41.0008 38.9907 44.945 41.0839 40.8724 40.6719 40.6259 40.1006 42.1578 43.4261 41.6252 38.7942 40.8734 40.8762 40.8496 40.8942 41.0429 44.3263 43.6879 43.9393 44.0618 44.7896 43.6201 43.7906 73.5988 72.7011 41.951 47.9382 46.1144 45.9357 46.9504 43.1448 43.7172 43.6749 77.0844 41.9786 42.8735 47.946 48.8424 47.2514 44.7542 45.2844 45.7819 45.4801 45.0624 46.3959 46.4728 46.386 45.93 45.7688 45.8648 46.0684 45.5635 48.7885 48.492 47.7681 86.8976 87.4537 49.6081 49.3135 49.0084 49.3493 48.8794 50.0996 49.447 53.0859 55.2587 96.957 97.1824 54.8706 54.619 55.8682 55.1806 56.1751 56.2237 56.4997 56.4708 56.7204 51.2785 116.8032 133.2865 133.1303 137.1663 130.0772 131.6484 138.8693 142.99 137.6125 158.8496 162.9964 155.9872 
PEPMASS=1099.615
CHARGE=2+
55.0647 297
56.0602 492
57.0447 253
70.0775 1812
72.093 3474
73.0975 196
84.0584 658
84.0945 934
86.1102 324
101.0899 244
104.0884 689
117.1244 205
122.1022 1485
129.1246 1314
130.1241 183
136.1004 166
141.1267 842
143.1426 1001
154.1503 182
169.1258 1831
170.1297 193
171.1427 1060
172.0067 306
172.1435 186
175.1506 426
181.0935 228
183.1809 188
185.1115 278
185.1305 292
196.0967 206
197.1991 422
198.1211 160
199.1076 175
200.176 205
202.0213 575
204.0361 173
211.1846 189
213.1233 815
216.0375 276
216.1364 241
226.1215 191
227.1059 583
228.1744 651
242.2282 668
244.1355 1119
250.0315 1045
252.0313 126
252.2188 150
254.2306 137
262.1994 228
263.0365 287
266.1658 211
270.2307 306
281.1538 458
282.2321 1100
283.2399 155
284.1733 1167
287.2608 161
287.9932 331
289.0514 464
291.0955 154
300.9831 131
307.0605 10444
308.0649 1737
309.0607 1692
310.0658 202
311.0574 366
324.1793 614
326.1929 620
327.2595 138
339.0438 246
341.207 213
343.2217 2975
344.2252 525
345.0165 1936
346.0192 246
347.0151 344
353.2895 176
355.2656 134
363.2648 245
369.2707 150
371.1247 269
377.9503 182
381.0011 805
383 462
383.0831 341
384.2555 138
385.0026 123
394.2421 339
395.2352 468
395.3383 391
397.2798 531
398.3091 406
399.0198 284
401.0102 199
409.0892 3179
410.0966 349
410.3487 2604
411.3543 620
412.2552 797
413.2622 139
414.2734 173
416.9881 454
418.9854 326
421.029 148
434.3151 1217
435.006 758
435.3149 324
438.3521 123
442.3092 300
445.065 135
447.0441 359
452.37 318
454.9409 706
456.9369 425
459.095 611
461.0961 118
466.119 171
466.3084 119
467.3376 173
468.3307 250
472.9539 1617
473.959 239
474.9463 271
476.9472 156
490.9688 2398
491.9766 413
492.9704 445
494.313 147
494.4189 360
494.9648 206
495.3478 340
496.3353 201
497.0453 238
497.3648 192
498.0474 374
499.0645 293
502.1018 121
504.088 154
507.3533 159
507.423 140
508.9384 1501
509.9426 195
510.9366 983
511.3435 536
511.941 145
512.3444 174
512.9315 202
513.3605 1889
514.3641 558
516.0117 135
516.0328 347
517.0283 375
518.0248 190
521.7577 188
522.2556 157
523.4659 168
524.4812 138
525.3633 761
525.4873 182
526.3698 215
530.2603 163
532.9897 160
535.0154 290
536.0148 230
537.0177 576
538.0816 246
539.0049 124
539.078 156
539.3825 246
543.473 151
544.478 158
546.0339 129
546.8915 1172
547.8025 113
547.9006 137
548.8919 345
551.455 167
552.9993 262
554.0028 312
554.9999 179
556.0908 2506
557.0929 1037
558.0901 1807
559.095 397
560.0774 590
562.0069 469
562.5117 225
563.015 168
563.3879 182
563.7885 132
564.9029 198
566.011 139
566.7704 210
566.9065 125
567.2652 270
567.4097 199
567.7726 184
570.4646 210
570.9791 178
571.4618 307
571.9895 244
572.4663 173
572.9844 160
572.9923 141
574.9792 373
579.3709 114
580.0023 286
580.996 487
581.4398 214
581.4956 206
581.9865 159
582.4223 166
582.8758 143
584.8406 132
588.4531 204
589.4546 288
589.9679 200
590.4534 228
590.9678 146
594.0472 2586
595.0474 729
596.0526 1017
596.429 182
597.049 219
598.0373 402
598.9762 681
599.4844 236
599.9805 436
600.48 164
600.8896 2781
600.98 191
601.8921 470
602.8888 551
604.8928 261
607.4323 183
608.4405 163
610.4356 390
610.9546 203
611.432 129
613.1228 2061
613.9933 158
614.1248 530
615.1259 536
615.9909 138
616.9707 331
617.1253 218
617.4655 153
617.9724 452
618.4544 155
618.9632 267
620.4127 968
620.5252 149
620.8279 172
621.4095 356
622.5384 150
622.8285 184
624.4511 443
624.9811 194
625.4611 177
630.0335 187
632.0077 484
633.0599 291
633.2172 109
634.0499 739
635.0495 193
635.4312 129
635.4692 149
635.9471 242
636.0536 153
636.9543 156
638.8432 321
638.9641 255
639.4605 230
644.9474 223
651.0702 11585
652.0813 2825
653.0706 2824
653.4122 124
653.4785 200
653.941 216
654.0812 562
654.9292 153
655.0688 728
656.8128 219
658.8186 287
660.8212 111
662.9419 201
663.4702 153
663.951 185
664.4481 147
664.9507 211
667.9789 317
669.9642 246
674.792 132
675.2691 143
675.7683 116
681.4811 1036
681.9272 128
682.3253 195
682.4839 517
683.4812 107
684.0318 802
685.0319 426
685.8726 331
686.0289 560
686.3776 243
686.8862 126
687.0573 3837
688.0559 912
689.0433 3146
690.0462 705
691.0353 669
691.5692 193
691.8565 136
692.0451 175
692.8547 122
693.0188 272
694.5039 116
695.5057 292
696.5048 130
696.9165 122
699.9084 148
703.0153 937
703.5191 791
703.9635 183
704.018 249
705.9502 450
707.9413 190
711.9283 112
712.4317 110
721.982 704
723.0463 509
723.9691 233
725.0255 654
725.9643 111
726.0317 144
727.0187 228
740.8907 121
741.0608 1168
741.9229 343
742.0631 235
743.0543 245
743.9275 311
745.0719 117
748.7632 167
750.7604 164
757.9691 127
759.5622 158
759.9458 371
761.0067 346
761.9495 126
763.0059 305
764.9948 107
766.4861 106
779.0078 4799
780.02 1116
781.0098 1211
782.004 230
783.0192 357
783.507 1169
784.5064 472
785.5071 143
794.5775 660
795.5892 335
795.5941 144
795.9161 576
797.9108 317
798.9626 133
814.9949 447
816.971 1501
817.9731 378
818.9826 440
819.9789 139
820.9667 186
831.9098 114
833.8695 240
834.626 109
843.6275 3090
844.1259 2903
844.6325 1561
845.1341 676
845.6316 227
852.9528 1714
853.9417 390
854.9532 902
855.9657 208
856.9518 387
858.9431 181
871.8671 110
882.5891 712
883.5883 406
887.8673 147
888.9396 322
889.9177 112
890.9022 433
892.9088 286
901.1537 366
901.6482 390
902.1657 166
903.7621 131
906.9455 301
908.9295 112
926.887 425
928.8931 277
930.8807 139
942.9259 128
944.9012 1440
945.8962 246
946.9065 360
948.8911 156
956.6863 283
957.1761 246
957.6732 149
961.8223 160
965.1951 466
965.6918 591
966.1983 262
966.6751 143
980.8786 337
981.8864 117
982.8667 314
995.7024 514
996.6996 324
1014.7297 601
1015.2356 824
1015.7321 504
1016.2394 243
1018.8441 562
1019.8353 122
1020.839 290
1054.8275 123
1064.7893 132
1066.7501 534
1067.7513 296
1090.7943 122
1091.2821 149
1091.7954 221
1092.784 179
1099.7983 3092
1100.2981 3776
1100.8032 2588
1101.3047 1290
1101.8069 487
1110.8013 184
1179.8528 271
1276.9095 3319
1277.914 2238
1278.9215 809
1278.9315 856
1279.927 292
1405.0326 691
1406.0518 479
1407.0485 252
1686.2595 606
1687.2505 651
1687.2695 556
END IONS
BEGIN IONS
TITLE=Spectrum 1DFPIANGER_01.csv DRIFT_TIME=16.4366 16.0668 16.1296 15.9522 16.1348 16.3723 16.0212 16.3292 16.3657 16.299 16.1896 16.1564 16.1464 16.1072 16.4333 16.1523 16.3531 16.1059 16.0457 16.4886 16.1854 16.2811 16.2977 16.2125 17.9579 16.0404 16.0131 16.5339 16.2991 16.7011 16.0351 16.3732 16.2228 16.5265 16.1835 16.614 16.2637 16.5027 16.2424 16.5538 16.9455 16.5128 16.4427 16.504 16.5172 16.4946 16.6506 16.2569 16.4465 16.3097 16.2334 16.4799 16.4185 16.6821 16.5521 16.7076 16.8373 16.5955 16.9013 16.6262 16.8732 16.5744 16.4824 16.6092 16.7425 16.2777 16.6438 16.6755 17.2056 16.6546 16.8199 18.5099 16.7381 19.3351 16.7173 16.7993 17.8106 16.8006 17.6295 17.0892 17.4887 16.8521 16.8362 16.8052 17.021 17.0958 17.1398 16.8267 16.7905 18.158 18.2876 17.9338 17.8886 18.6295 17.5159 17.1394 17.8614 17.0721 17.1975 18.6513 17.5717 18.1964 17.5603 17.5171 17.2569 19.0292 17.2014 18.0792 18.1215 18.3299 18.4372 18.6563 17.9348 18.4628 18.5383 18.6872 17.5982 18.5492 17.2752 17.7869 17.382 17.4934 17.2737 17.5105 17.9576 18.5166 19.4338 18.8512 18.7492 18.8277 18.7924 18.7414 18.8859 18.4407 18.2679 18.2221 18.2693 19.0391 18.0341 18.6576 19.1025 18.3347 18.8041 19.0551 18.5764 16.5259 18.6705 16.8789 20.7183 19.1509 20.8341 19.4879 19.69 19.6526 16.2689 17.9569 20.7519 18.9054 19.0028 18.8734 18.9546 16.4157 18.8686 16.4758 16.4383 18.8662 19.9725 16.3481 20.0648 19.2964 24.4505 25.3642 17.1809 17.4485 20.5004 20.8615 18.6702 17.4445 18.0477 16.3858 18.7492 19.148 19.6988 19.6983 20.0398 19.107 19.6615 19.8557 19.297 19.4946 19.279 19.3982 19.5006 22.3458 22.1117 16.3585 17.9843 16.3841 19.8251 16.5005 19.7123 24.1029 20.7182 16.607 19.0377 20.5497 26.9279 21.364 22.4665 18.6781 20.4716 18.1457 18.6243 19.4691 20.0814 19.3812 16.6671 19.4312 19.6168 19.7082 19.2901 19.8789 24.8777 19.325 19.4094 16.7782 21.8069 16.3676 16.7568 16.3304 21.3988 16.3403 21.4441 16.5242 21.3296 18.7838 18.2625 24.3832 30.0549 22.7771 23.2063 29.8744 18.4899 20.173 22.2643 24.2363 30.4601 16.5366 22.3411 16.5088 23.5182 28.1852 16.4191 16.7044 23.7466 27.4421 16.5826 19.5965 22.5334 16.4745 22.7172 18.8848 16.2807 16.2563 24.0853 19.6772 24.1619 27.5235 19.7335 23.9838 19.5743 24.2862 18.6808 31.378601 23.1151 32.1553 18.3964 27.4747 19.0696 22.5149 26.5264 21.5972 21.4411 16.4699 21.6298 16.5379 21.4892 16.7473 21.4102 16.7099 21.3657 16.4888 19.9284 16.484 24.8378 16.4659 16.6108 25.366 20.288 17.2149 19.9555 16.5369 19.7271 28.5065 16.9932 29.1278 29.0623 15.9307 22.6192 16.4406 22.5504 22.5632 16.5646 16.2839 16.6806 16.663 22.9252 30.9679 20.086 30.828 20.2166 17.1079 20.5157 17.2257 17.341 20.1003 20.7806 18.713 21.2336 16.4809 18.9196 16.5461 16.4903 32.0891 32.5273 16.8403 16.9138 17.2671 33.6049 17.2109 17.1826 26.989 17.2021 16.6629 26.4873 31.624802 21.067 26.439 20.5531 26.5433 21.3119 26.0902 21.0267 26.4414 20.7284 17.1812 20.8692 16.8835 21.076 35.3372 34.6036 17.4362 25.6404 17.1667 17.5669 22.0875 18.0734 17.8971 16.4985 16.7867 16.5774 33.5019 32.9412 16.525 17.4927 27.1773 17.1822 17.4958 21.6956 27.1363 17.4345 17.2498 27.1788 18.0206 18.4786 27.1938 21.5594 26.8573 20.913 32.2196 17.4735 32.2868 17.9501 17.9596 17.7413 16.6199 17.6436 16.6102 17.6132 16.8416 36.5945 18.4538 18.2236 18.1321 17.6796 24.1456 30.3461 17.7073 17.718 23.944 17.7061 30.138 18.8294 29.5991 18.3411 39.4733 18.4784 16.7408 18.2431 39.2974 18.1356 19.732 19.2659 42.3266 42.0537 17.8769 17.7145 40.9887 17.5792 24.4062 16.3205 17.7016 16.6939 25.9906 19.6118 26.019 19.5616 19.3847 25.9455 18.3034 18.9418 22.6995 25.9244 19.2744 24.7596 18.7751 19.0283 24.7647 17.8746 17.9139 19.849 24.4392 17.921 18.3602 18.2522 18.0279 18.462 37.5353 20.2726 34.772 20.7936 20.8454 20.0649 19.7654 24.5747 26.7244 18.2951 18.8787 18.6372 18.7791 26.9946 18.7929 38.0728 20.6503 26.4568 20.6088 40.8703 20.696 20.3556 20.6263 27.0857 19.7201 19.5384 19.3671 19.0276 19.3154 39.3237 39.7386 19.5426 19.8518 19.9197 19.7871 34.1466 19.6941 19.8093 19.8028 19.5924 19.9938 20.6653 20.5375 20.0265 19.9286 20.0628 20.0199 27.9922 27.863 28.0202 38.606 18.6843 41.299 27.9152 40.9521 27.7741 40.9311 21.3566 21.1591 20.7842 20.4592 20.6183 20.7318 20.4289 20.6639 21.6887 22.8359 21.9001 21.8986 21.828 48.9659 21.3005 21.7931 22.7453 22.1849 47.0242 21.8656 29.0822 21.8862 21.5334 29.0605 21.5342 21.2762 29.2827 21.241 29.0166 47.1484 21.0763 20.7128 23.7725 23.2866 23.2427 22.5907 22.3763 22.6478 22.3892 22.6076 21.8565 21.1789 21.1976 21.3253 25.0633 44.5156 24.9635 51.64 69.2718 78.3511 24.1749 31.958199 23.6195 45.9292 50.1078 52.8794 29.742 23.59 32.017 23.5735 46.9565 23.1683 31.862602 23.2366 46.7062 52.0096 62.1432 22.2513 31.0136 22.6621 46.6802 62.7853 22.3722 31.283302 63.392303 46.2169 46.2961 46.3898 46.6357 48.2511 39.4897 51.3482 34.0533 51.6041 51.4097 33.935 51.7659 49.9901 48.5227 43.6891 59.4841 52.6559 59.7124 59.8349 59.8188 53.8634 54.8836 33.8293 62.319 61.5918 61.8489 62.9135 63.858 65.1735 65.206 64.2994 70.6629 31.626602 69.8454 70.053 72.2694 69.328 68.4604 34.0857 75.3138 78.4957 80.6284 83.9872 84.7375 86.6097 82.2471 78.174 77.831 77.6431 76.9445 76.7598 92.0995 102.3397 102.1087 104.0015 
PEPMASS=509.754
CHARGE=2+
102.9889 194
104.0928 1945
110.0932 3779
111.0975 700
112.1112 174
114.9766 479
116.0964 314
116.9736 489
117.012 765
118.9716 595
120.1056 4029
121.1096 469
122.1067 4600
123.1111 279
125.0178 171
129.1298 1009
129.9915 1006
130.0924 1695
131.0922 243
132.9852 161
134.9894 180
136.1044 1062
136.9822 187
137.1106 225
141.053 141
141.4902 429
144.1114 243
144.9944 169
147.1438 340
148.0039 223
150.5002 160
152.0356 686
154.1557 336
157.0385 383
158.1254 579
159.0125 469
159.1248 660
160.0613 941
160.1301 159
164.0357 378
166.9043 221
168.0319 259
169.1335 254
169.1668 185
170.0466 190
171.1865 242
172.0106 1707
172.1109 576
175.1223 1510
175.1555 1704
176.122 255
178.0779 198
179.134 228
182.0521 160
183.1876 2927
184.0128 301
184.0667 177
184.192 456
186.0302 1137
188.0074 223
190.0234 399
190.1263 1532
191.1277 242
193.0072 420
195.0037 2788
195.1175 172
196.0066 644
197.0005 2225
198.0323 1076
200.1142 179
202.0265 1722
202.9339 367
203.0355 426
203.9326 146
204.0434 1294
204.176 1027
204.9303 310
205.181 327
210.126 297
211.0256 171
211.187 640
213.017 891
214.024 218
215.0158 599
216.0452 1045
217.1419 703
218.1281 433
219.0044 286
220.0256 421
220.9472 331
221.9471 462
222.9453 271
223.9363 377
226.124 560
227.9283 136
227.9789 226
229.1675 161
231.0606 163
232.0264 2028
234.0013 312
235.1556 7524
236.004 157
236.1598 1299
237.1626 186
239.167 267
239.9847 229
241.9479 348
243.9799 180
244.0322 288
244.1406 212
245.1422 243
245.9492 5200
246.0443 191
246.953 403
247.9473 2036
248.9503 143
249.1493 352
249.9438 284
250.0401 4204
250.1496 165
251.0471 518
252.0334 1008
253.0414 188
254.0352 426
255.0676 156
256.1398 343
257.2051 171
257.9931 600
258.0623 264
258.2018 261
258.8624 137
259.2005 187
259.9697 1015
261.9708 290
262.0465 450
263.0391 701
263.1513 188
263.9637 2788
264.0594 3867
264.966 169
265.9627 1113
265.9893 1127
267.1626 484
267.9599 157
268.1663 267
269.0134 267
269.1788 160
269.9493 225
269.9854 271
270.1644 132
271.9823 217
272.0194 226
272.1858 170
273.1827 207
273.9548 181
274.0466 329
275.1784 155
275.2276 157
275.9659 5815
276.9739 618
277.9669 2562
278.5518 914
278.9674 187
279.0554 168
279.5502 196
279.9663 341
280.0106 505
280.5356 245
281.1597 357
281.9806 484
282.1959 218
282.2431 308
283.9699 4554
284.9731 280
285.1882 144
285.9792 387
286.8567 2993
286.945 379
288.0015 2059
288.0968 208
288.8553 396
289.0614 1413
289.9852 3081
290.0511 512
290.9917 440
291.0569 467
291.982 1234
292.0598 922
293.0521 159
293.9799 2265
294.8946 209
294.9873 289
295.9794 970
296.214 333
297.2173 169
297.5305 678
298.0318 295
298.5238 200
299.0313 459
299.5141 243
300.0282 148
300.2183 133
300.9922 8290
301.51 131
301.991 919
302.9905 1006
303.2145 152
303.9935 169
304.225 132
304.8718 2031
304.9835 304
306.0151 858
306.8709 287
307.0712 17331
307.9993 729
308.0777 2369
308.5172 252
309.0716 2617
310.0002 266
310.0751 209
311.0705 505
311.9966 140
312.2192 437
312.9055 288
313.9033 519
314.2268 120
315.0201 256
316.5115 600
317.0097 137
317.5187 250
319.0091 2812
319.9329 206
320.0108 217
320.5129 136
321.003 283
322.8817 475
322.9455 447
323.1908 116
323.2946 2493
323.9815 955
324.2148 290
324.298 779
324.9418 388
325.0467 194
325.1507 152
325.2177 189
325.2941 140
325.5129 159
325.9711 222
326.0465 1802
326.2145 151
326.271 323
326.5489 267
327.0448 287
327.2076 173
328.2515 158
329.6964 135
331.8979 154
334.016 138
334.5014 318
335.0148 449
335.9431 168
336.0213 162
336.5131 116
336.9775 2565
337.9038 4966
337.9829 268
338.2522 429
338.9066 329
338.9757 1365
339.9064 320
339.9814 150
340.9647 333
341.3081 818
341.9961 850
342.3108 221
342.9533 389
343.2322 212
343.8936 263
343.9939 270
344.229 280
345.0256 37369
345.2067 166
345.527 787
346.0329 7192
346.5236 290
347.0259 7176
347.5264 139
348.0333 929
348.5442 154
349.0245 2371
351.7085 137
351.9263 645
352.4919 404
353.1218 194
353.4885 259
354.0289 293
354.9935 252
355.9196 4458
356.2627 154
356.9194 260
357.0382 149
357.9231 322
360.233 132
360.9644 117
361.2599 1460
362.2654 235
363.0093 139
363.0443 2338
364.0152 236
364.0506 279
365.0434 268
365.5044 426
365.9072 187
366.0075 153
366.5107 179
367.0401 119
367.2724 345
367.9224 4854
368.2726 238
368.9264 318
369.7665 201
369.9366 950
370.2629 410
370.7618 186
371.9102 192
373.9342 1864
374.7568 303
374.9419 108
375.0457 665
375.2568 156
375.5515 177
376.0406 220
376.2509 321
377.2565 272
377.7389 1585
378.2332 1230
378.7791 8552
379.2694 205
379.2762 5189
379.7786 1762
380.0623 489
380.2777 355
380.4789 185
381.0113 10756
381.2503 153
381.9421 3307
382.0159 1487
382.9424 239
383.0106 5733
383.9434 200
384.0148 739
384.8977 122
385.0102 1216
385.9375 3323
386.7289 195
386.9421 258
387.2265 261
387.9436 386
388.337 178
389.3485 177
390.7473 393
391.0406 186
391.2475 323
391.7483 141
391.9982 544
392.2532 343
392.7582 196
393.5279 485
394.0204 217
394.5259 169
396.3051 167
397.3013 147
398.4692 283
398.7547 866
399.0275 3912
399.2501 838
399.7542 1519
399.9555 1519
400.0311 453
400.2505 1003
400.7538 349
401.0241 1984
401.2625 364
401.753 166
402.0267 176
402.9106 240
403.0234 306
403.9536 426
404.2542 589
404.7517 170
405.2575 509
407.7597 4653
408.2627 2102
408.761 709
408.9952 662
409.2492 301
409.4876 141
409.7534 181
409.9933 148
411.3373 104
411.7663 227
412.2618 204
412.7645 308
413.2577 336
415.9396 562
416.9964 543
417.2513 140
417.7432 240
417.9417 159
418.2529 154
418.9933 518
420.7718 1817
420.9923 139
421.2685 1298
421.3105 688
421.7733 1210
422.0489 342
422.2691 899
422.3081 177
422.7668 452
423.2835 223
423.7799 177
424.3054 450
425.314 405
425.7642 181
426.2608 1117
426.3105 144
426.7552 900
426.9728 516
426.99 270
427.2494 357
427.983 263
428.9325 5721
429.7781 5026
429.9389 598
430.2788 2370
430.7786 800
430.9301 617
431.2664 286
431.7721 163
431.9151 127
432.9268 205
433.7807 201
433.9483 1004
434.2784 264
434.7745 305
434.9562 128
435.2671 957
435.7629 608
435.8516 405
435.943 161
436.2641 276
438.7647 165
439.2658 384
439.7619 305
440.2565 152
441.2666 191
442.7891 1079
443.0198 462
443.2957 1055
443.801 784
444.2984 364
444.7932 128
444.9897 352
446.9507 1036
447.2696 470
447.7649 993
448.2712 1194
448.77 916
448.9416 149
449.2713 320
450.2583 249
451.7956 3267
451.9171 195
452.2953 1623
452.3204 119
452.8016 519
453.3089 160
453.8636 289
454.9597 153
456.2777 3441
456.7789 2035
457.2793 1756
457.7793 995
458.282 428
458.2954 542
459.3003 169
460.2772 129
460.7756 280
461.2822 230
461.7763 154
463.1079 184
465.2842 4300
465.7879 2472
466.2891 753
466.7988 193
467.2868 170
469.2882 1277
469.7873 1174
470.2899 969
470.787 571
471.2885 182
471.7928 137
472.9661 8619
473.9729 1106
474.9709 1123
475.1571 646
475.2958 181
475.3268 2131
475.9678 171
476.3237 665
476.9566 365
478.2644 117
478.2952 4483
478.7965 3181
479.2973 1687
479.7965 889
480.2984 469
480.7966 240
481.301 251
482.3062 144
482.7934 161
486.8224 144
487.3011 6618
487.8052 3896
488.3068 1341
488.3832 129
488.8058 344
489.3008 266
489.8177 353
490.3128 426
490.3699 286
490.8146 174
490.9767 11016
491.3056 691
491.8024 703
491.9868 1515
492.3019 385
492.8063 149
492.9842 1503
494.3032 148
494.982 508
496.3597 318
496.8191 106
497.3191 260
498.8376 317
499.341 629
499.845 298
500.3152 3105
500.8131 2137
501.315 848
501.8169 312
502.3171 178
502.8236 201
503.3165 526
503.8147 361
506.325 139
507.8409 1370
508.2662 158
508.3419 1853
508.4332 291
508.5797 145
508.6816 181
508.8479 586
508.9557 2315
509.3206 5776
509.352 120
509.3642 109
509.4346 139
509.465 150
509.8245 3248
509.9609 301
510.3245 1270
510.3595 307
510.8282 373
510.9526 1045
511.3209 274
511.3401 262
511.4509 444
511.5071 551
511.8293 333
511.949 180
512.3253 825
512.3453 136
512.5056 190
512.8218 453
512.9571 197
513.5175 342
518.2707 210
528.3621 118
529.3501 416
530.3442 144
535.2964 300
537.0324 113
546.3744 10830
546.9094 218
547.3765 4208
548.379 900
548.9111 126
549.3802 196
553.3172 332
554.3086 109
556.1065 324
556.4641 315
557.3471 209
557.4658 588
558.4707 637
559.4656 157
590.3842 139
591.3722 279
600.9164 254
610.4244 312
611.4255 576
612.4346 335
627.4495 111
642.4569 166
647.3976 229
648.4082 403
649.4083 241
659.4851 4763
659.8809 126
660.4859 1883
661.477 527
669.471 149
671.5363 138
672.5259 194
673.8786 201
739.532 445
740.5354 214
743.5833 168
747.518 189
748.5165 527
749.4754 142
749.5099 163
755.4283 112
756.5528 6849
757.5562 2828
758.5569 849
759.5557 158
858.6305 200
914.656 168
915.6722 544
916.6706 311
END IONS
BEGIN IONS
TITLE=Spectrum 1DGPLTGTYR.csv DRIFT_TIME=17.4815 16.4741 16.8377 16.6403 19.1236 19.5589 17.081 16.8046 19.4156 18.9148 18.4435 17.1543 20.7802 22.0734 18.1014 20.4259 21.5154 22.0096 22.3662 17.9873 20.1655 21.4004 19.828 25.935 22.4085 24.0784 25.3506 26.1386 19.4917 22.1953 22.4179 21.7596 21.8085 25.1924 30.1446 26.0311 23.62 21.3098 34.1486 23.6391 22.3218 23.725 23.4907 34.146 30.1309 23.6524 23.4516 23.7197 24.0201 23.8247 24.2655 29.007 27.2344 23.4331 24.0696 17.0163 24.0342 38.1374 33.2087 38.6981 28.8362 27.6012 31.358002 39.0804 17.2714 29.1275 37.9343 18.0951 45.8334 36.222 36.6928 17.9846 35.5712 17.9416 45.1735 45.8578 26.4036 36.5379 48.4116 26.6764 37.0805 25.8206 51.9159 27.1996 30.9006 31.7266 32.8447 49.1334 33.3442 55.9181 33.1581 33.3601 61.8061 62.5847 66.0442 65.9995 77.4965 81.8288 81.3709 71.8209 70.052 67.9858 66.8373 89.1097 89.3022 89.1121 102.6378 103.9326 112.3397 117.1854 121.0644 121.7383 119.8557 151.2669 
PEPMASS=490.2485
CHARGE=2+
115.0218 168
122.1076 161
129.1302 170
130.1137 458
132.991 634
134.9884 549
136.1063 165
147.1444 264
151.0058 207
153.0062 236
157.1686 142
159.1104 393
160.0634 365
166.9037 1585
175.1555 156
178.0793 216
183.1858 126
184.9188 262
185.2096 225
187.1122 258
195.9353 2512
204.0443 180
213.9523 1338
223.9357 2319
224.1518 131
224.9434 132
227.9324 123
229.168 472
231.9696 261
241.942 5309
242.9574 618
243.9524 199
245.9488 399
250.0418 461
252.018 269
252.038 151
259.9191 2761
259.9659 1606
260.2567 448
260.9274 299
260.9741 197
261.9151 2960
263.9197 293
269.9873 133
270.0374 148
277.9315 3233
278.9411 361
279.9304 3241
280.9409 145
281.9341 326
283.9737 149
286.8593 251
288.0043 652
295.9255 227
295.959 721
297.5345 211
297.951 1054
298.2075 159
300.1515 147
300.2219 282
304.876 416
306.0205 789
307.0756 571
316.2217 182
316.5163 137
322.893 309
323.9838 148
326.0521 398
328.2603 167
334.0143 184
342.0025 211
345.0283 446
345.032 221
346.0245 155
347.3038 1103
348.3038 171
351.8798 991
352.0264 113
369.2529 167
369.8914 1717
379.9634 210
380.9187 139
387.2767 118
387.909 720
395.3012 141
404.3028 156
408.9106 1485
409.0929 140
409.918 154
415.2758 583
426.927 1355
427.9345 220
462.3593 826
463.3622 221
484.3147 432
485.3117 133
487.4777 125
489.4162 324
490.4143 111
496.3653 563
497.3677 169
502.3317 588
503.3408 142
575.4687 417
597.429 1094
598.4421 350
646.5202 508
647.5268 235
710.5409 365
711.5551 164
761.564 1303
762.5665 535
763.5873 188
874.674 494
END IONS
BEGIN IONS
TITLE=Spectrum 1EPISVSSQQMLK.csv DRIFT_TIME=15.956001 16.0413 16.063 15.976 16.1912 16.1036 16.2214 16.5056 16.2146 16.1891 16.1416 16.1904 16.2072 16.5419 16.2187 16.724 16.484 16.1887 16.7123 16.3742 16.5896 16.514 16.5196 16.4102 16.4382 17.2503 17.1039 16.5982 16.6831 16.7214 16.6928 16.7248 16.5497 16.2964 17.0038 16.7175 16.4215 17.056 18.6427 17.3752 17.0061 18.5871 18.7516 17.7808 17.111 17.9683 18.504 17.3742 18.9584 18.8646 18.9648 16.8903 21.8662 22.1669 17.0296 18.2031 16.9322 17.9541 19.6119 20.5139 20.5819 19.0502 21.2986 17.1434 24.731 19.8001 19.3502 18.7052 18.8721 18.564 19.0161 20.4654 20.1904 25.4793 25.1843 23.219 21.6638 25.7751 18.6785 23.3995 24.3028 18.1516 18.5879 19.4262 23.8821 19.3711 19.2967 34.0937 19.2125 19.4744 19.4256 19.1379 19.4984 24.7308 23.3053 26.2528 18.572 24.4205 22.7586 22.238 20.2124 16.2785 22.1505 20.8872 27.934 30.0332 22.8738 23.0048 18.7257 20.4643 26.6706 21.6601 21.3561 21.2861 17.3683 27.2768 22.3356 29.2269 22.229 22.2635 29.6344 22.685 16.5587 35.1185 32.5356 19.9077 22.7218 26.3736 16.2114 26.4961 31.446602 22.619 16.3184 31.645699 26.3343 22.9739 26.3982 26.4729 26.2236 25.7013 31.641502 32.3085 37.7795 32.4242 36.9801 31.3275 36.9214 16.692 16.4953 16.6054 23.2167 16.601 26.9049 16.4948 23.0506 16.1908 16.3247 27.0403 26.5835 26.4446 26.5549 20.1653 31.8252 33.0362 33.0677 18.6289 33.2436 20.5884 16.6506 24.2009 30.2095 16.3899 25.7036 16.4472 24.8609 16.5159 29.7375 29.6432 17.8105 38.654 29.5553 31.011002 16.7661 20.5923 16.4883 29.928 36.7608 35.741 16.6549 36.6397 36.5077 24.4162 24.57 16.5035 19.9119 24.434 16.6165 16.5583 16.6254 17.8162 34.4327 16.5507 22.1839 29.5596 36.4667 16.8091 42.1239 26.5207 24.0189 23.7851 31.556198 26.0352 31.993698 16.9462 16.8653 22.5876 16.9948 44.1086 43.8134 16.6954 49.0811 16.5729 49.3779 35.9613 18.5492 17.0703 26.611 16.9496 16.8474 17.0111 24.2815 24.2051 27.8234 24.3715 43.12 19.279 16.9343 17.0471 16.9675 17.1265 45.721 45.9515 17.0669 33.4912 33.1941 32.9966 43.9641 19.339 16.9928 17.4242 43.1801 24.8676 44.2172 28.8489 44.2616 43.8191 54.009 29.1714 54.2062 20.9193 24.3106 23.6497 17.6983 17.623 47.5512 17.2642 17.3022 38.8074 17.1121 38.8871 38.3005 54.1617 50.137 20.723 21.4034 23.9943 23.9201 16.9561 17.5465 21.5927 28.1202 30.6062 21.9286 47.9671 54.3316 20.9135 32.0264 21.523 32.525 32.1668 32.5592 22.03 17.9478 32.1994 21.17 27.6356 21.0885 27.6234 21.2221 31.155098 37.9074 54.1465 24.1099 54.5869 22.8116 38.0706 23.1464 22.739 23.171 22.9869 23.3458 17.8838 24.6486 24.2808 50.4935 23.3075 23.0116 23.2816 37.4174 23.2545 23.2569 23.2905 23.2823 23.2382 23.1199 23.3479 28.5568 23.9352 49.6757 47.9451 34.2415 48.8356 40.8715 52.3561 34.3259 29.7521 29.284 28.801 44.3517 23.7922 44.6301 43.891 44.0901 22.2206 21.9786 29.1625 28.103 52.2542 52.8141 59.4214 33.4521 23.3315 32.8577 33.6736 55.0022 59.7219 47.9248 44.6823 46.0134 56.0924 45.1087 56.7295 58.1084 28.2929 33.9776 28.1957 33.9541 33.1297 33.2395 28.0741 28.3329 28.5389 34.1732 28.8172 34.3011 34.1311 33.7622 47.9116 59.717 57.0971 28.7861 29.2379 28.5179 65.8221 48.2453 67.3043 34.9145 67.1892 67.5261 50.1402 38.3674 39.1349 67.5006 65.4018 33.5071 35.6837 34.4036 39.1642 39.4017 40.5644 75.4635 38.7892 39.8698 72.9985 40.0335 70.1469 40.1403 78.4012 90.8405 39.6478 78.9948 34.7749 76.9053 93.9259 36.2748 36.2919 70.9149 70.0305 52.6514 49.7197 75.1323 81.0873 81.0887 80.6447 77.7516 54.0804 83.7462 85.034 91.5172 87.6901 94.1323 93.3684 94.6413 93.9324 101.1297 114.0444 111.8778 112.6281 100.6577 116.2686 116.6358 116.0473 115.6199 136.4382 137.5005 138.5704 
PEPMASS=673.856
CHARGE=2+
101.0916 293
102.0755 730
104.0908 401
110.093 441
114.1127 285
122.1055 1036
129.1273 401
129.9917 163
130.1122 1030
136.1036 190
147.1411 587
154.156 336
159.1441 890
160.0614 565
171.1821 285
172.0104 489
173.1618 495
175.1535 177
178.0719 160
181.1327 2076
182.1378 205
183.1485 901
183.1862 717
184.1502 207
187.1397 214
196.0418 189
198.0365 188
199.1466 866
201.165 259
202.0251 914
204.0378 339
209.1328 2910
210.1361 478
214.9307 386
216.0443 525
216.1413 199
216.9276 353
220.0376 195
223.2023 137
223.9363 314
227.1473 394
233.9988 1987
235.9968 573
240.1487 210
241.9487 521
245.9479 192
248.2119 311
250.039 1579
252.0118 2188
254.0095 688
257.1757 160
259.9223 171
260.2471 1099
261.2564 161
261.9153 1015
263.0365 501
263.9108 277
265.0299 136
266.9522 150
269.9824 914
271.9792 529
274.1927 281
276.2268 143
279.9288 550
280.2209 203
284.9576 125
285.1766 150
286.8534 1040
287.9986 1469
288.8502 357
289.0561 597
289.9915 373
290.0807 253
294.2422 573
295.2396 141
298.2363 240
303.188 113
304.2126 159
304.868 766
305.1674 126
305.9685 147
306.0117 484
306.8619 218
307.0663 16178
307.9628 151
308.0732 3165
309.0675 3880
309.3376 123
310.0704 825
311.0664 1946
312.0697 271
313.0632 210
315.063 133
319.1117 127
320.2175 146
322.2416 601
322.8877 186
323.1867 122
323.9763 1527
324.9812 126
325.9556 2035
326.0448 180
327.9652 162
339.0641 191
340.2557 341
341.3158 167
341.9922 1263
342.9935 174
343.8838 178
343.968 3963
344.2332 226
345.0273 1304
347.0271 168
349.0157 148
351.8715 238
355.095 386
361.9361 3994
362.2748 251
362.9528 277
363.9362 1581
364.2679 108
364.9399 117
365.4969 124
369.3536 212
373.2638 203
376.911 112
379.9501 5031
380.06 148
381.0046 153
381.0097 1210
381.2903 854
381.9476 1897
382.0091 159
382.2937 190
383.0096 545
383.9519 133
385.0049 257
385.9999 110
386.9989 169
391.0458 127
391.0843 179
391.2749 4027
391.3199 869
392.2801 1040
392.3212 219
393.2794 117
393.3167 119
394.0142 581
394.5202 130
397.6988 140
397.9667 646
398.459 192
399.0256 434
399.4628 123
399.9587 293
399.981 173
400.9831 149
401.0287 192
405.0659 1283
406.064 316
407.0591 288
408.9053 364
409.0977 103
409.2886 2361
410.2932 578
411.285 130
411.2973 111
412.8957 153
414.0246 127
415.9305 747
416.9926 458
417.4418 145
417.9248 156
417.9705 187
418.0217 1030
418.9668 242
418.9915 382
420.9878 122
422.7654 307
423.3239 126
424.9839 120
425.0961 137
426.4426 166
426.9236 151
426.978 161
427.0237 176
427.307 518
428.3107 143
430.4869 138
431.2725 531
432.2829 120
433.9445 1590
435.0111 546
435.4379 217
435.8405 383
435.9451 356
436.4333 145
436.9624 172
441.0231 184
444.7204 305
445.0794 160
445.9588 242
446.8895 139
447.0512 699
450.2484 397
450.5562 184
451.3183 308
451.9178 936
453.8959 2863
454.8974 191
454.9531 344
455.8997 184
456.95 182
459.0092 358
460.008 386
460.8341 184
461.0109 141
462.3658 1067
463.3754 347
463.9532 219
464.4337 609
464.9519 230
465.4389 248
466.1246 175
466.7536 201
469.5373 327
469.9348 225
470.0362 153
470.5323 190
471.5311 157
471.9057 5229
472.9144 240
472.9646 801
473.9081 134
475.2948 138
475.754 277
477.991 245
479.0744 832
479.5747 246
480.0749 303
480.373 473
481.3847 155
482.9388 170
483.0355 686
484.0434 111
485.0225 196
486.3298 307
486.739 136
487.5263 205
488.53 144
489.3273 165
489.92 1227
490.3625 1675
490.9787 1005
491.3653 502
492.3696 137
492.4713 3440
492.971 123
493.4737 913
493.782 159
495.3575 179
495.8532 136
497.0725 237
498.0546 276
498.3882 134
498.5508 170
499.0524 190
499.0683 374
500.0597 140
500.0633 157
501.0686 200
501.3805 154
502.3729 362
502.7803 333
503.2825 163
504.361 164
504.8598 188
504.9886 129
506.5145 138
507.7866 203
507.8891 366
508.0078 121
508.2909 116
508.3782 310
508.3817 284
508.7844 298
508.9496 1716
509.2889 124
509.9617 180
510.9459 577
514.9436 229
515.7913 121
516.0393 120
516.9424 244
517.7914 1192
517.8787 489
518.2924 690
518.3808 378
518.7943 329
518.9569 156
519.0208 304
519.4032 907
520.2983 242
520.4046 341
520.8341 147
521.0172 171
523.2712 257
523.7706 156
524.801 1098
525.304 614
525.8081 261
528.0663 169
529.3011 144
530.2817 316
530.3606 128
530.7968 1246
531.2993 683
531.81 262
537.027 213
539.803 14300
540.3067 9391
540.8123 3949
541.3109 1209
541.807 1238
542.3105 574
542.8153 257
543.865 125
544.824 4282
545.3169 179
546.2032 193
546.9028 634
547.1793 215
548.1295 275
548.3907 248
548.9001 198
550.8907 146
551.3934 146
551.905 141
556.0997 2583
556.3317 125
557.1018 568
558.1015 622
560.1054 124
560.3661 134
560.6098 124
560.9107 203
561.4062 103
562.3437 670
563.3282 166
564.4354 190
564.9192 107
567.8713 107
574.4343 423
574.9383 234
577.4205 228
588.3975 110
592.0873 332
594.0585 1001
595.0734 146
595.4256 562
596.0668 199
596.4306 237
599.4018 153
600.3271 128
600.4418 137
600.8207 130
600.9146 282
601.4336 155
601.923 109
606.8605 388
607.364 291
609.3291 202
609.4473 1684
609.8309 263
609.9461 1197
610.4518 614
610.9467 197
613.1349 254
613.4407 115
617.4116 186
620.8601 1094
621.3617 699
621.8563 161
629.4736 144
630.0438 156
630.4588 261
638.8618 124
647.4778 681
648.4886 255
651.0927 409
655.9648 125
656.4739 183
658.429 134
661.4304 131
663.3537 218
663.4243 169
663.9088 126
665.4774 228
665.9853 236
666.4922 132
673.5401 540
673.9841 858
674.49 2816
674.5392 180
674.9903 2230
675.4467 348
675.4932 961
675.5084 263
675.6626 143
675.9883 312
676.5238 128
677.4126 226
677.6143 185
677.6778 229
678.011 280
678.5178 182
685.4836 261
686.481 124
687.0702 138
721.989 247
730.4875 168
734.5326 1784
735.5338 747
736.5376 278
748.4663 192
779.0422 159
784.5628 214
785.5518 153
803.5713 176
804.5555 314
821.5742 6499
822.5797 3440
823.5863 1146
824.5815 418
897.6636 209
920.667 1465
921.6704 948
922.663 352
938.6524 136
1007.7133 3506
1008.7165 2212
1009.719 974
1010.7199 300
1120.8276 632
1121.8306 519
1122.8298 272
END IONS
BEGIN IONS
TITLE=Spectrum 1HNGPEHWHK.csv DRIFT_TIME=15.9293 16.0083 16.0215 16.0648 16.4228 16.1752 16.4725 16.0584 16.0357 16.2186 16.1514 16.1295 16.378 16.1793 16.5028 16.176 16.7438 16.0942 16.1802 16.2855 16.0236 16.3809 16.8613 16.6761 16.3176 16.6511 16.7613 16.2096 16.3428 16.3951 16.2529 16.3909 16.262 16.4808 16.6467 16.7962 16.237 16.6376 16.8029 16.4934 16.4826 16.6778 16.252 16.9224 16.3701 16.9194 18.3993 16.7795 18.4617 16.8003 16.5777 17.1885 16.9182 17.5392 16.7867 18.136 16.6518 16.1589 17.3155 16.7004 16.8713 16.7098 16.3729 17.9162 16.3694 16.9318 16.9265 17.0396 17.0806 17.0398 17.3049 18.0461 17.728 17.139 16.992 16.9399 16.8438 16.5431 17.1266 17.0544 18.0974 17.2828 18.3204 17.155 17.3427 16.2111 16.9613 18.9377 17.4546 17.4245 17.0735 17.6057 17.1922 19.7878 16.8319 17.4835 18.4072 17.96 18.4332 17.5482 18.4095 17.4172 17.3431 19.7604 17.3228 17.9465 17.4363 17.9497 17.5632 17.5989 19.8758 17.1165 17.4722 21.9958 17.2512 18.2666 22.0372 18.1648 18.765 19.7994 17.6809 16.5737 18.9439 18.2949 16.578 19.4555 16.3844 18.6142 17.4045 20.5496 20.7576 18.61 18.0679 18.6987 19.2475 20.5024 19.3459 20.7879 18.2284 19.5984 22.786 22.8292 16.3149 20.5036 22.1771 18.5908 18.1294 19.5575 19.4416 19.5721 19.4099 19.3346 19.2907 19.6901 19.9882 19.6435 19.2465 19.8793 19.3615 21.7097 19.455 16.464 16.6968 16.2538 18.7773 22.8084 23.6775 22.7911 18.3981 16.5888 22.9223 16.5082 16.5323 16.8196 29.0194 16.8664 19.3287 19.5448 16.51 22.8002 19.2744 16.5928 23.6426 19.6889 23.0092 25.8947 18.6038 22.7253 16.7544 16.595 18.6341 23.1087 21.5542 27.6083 16.4951 21.3575 16.4804 21.6366 28.5763 21.9197 31.5102 17.7182 23.4182 16.554 17.5155 16.6207 18.5087 16.5599 16.4925 18.4261 18.6587 19.0889 24.0117 28.6692 16.5624 22.8787 28.9898 16.373 34.2431 16.5076 16.6389 16.5378 20.6281 17.7956 20.5729 17.3023 23.9732 16.6675 16.5313 34.2589 16.6316 16.6289 16.4415 21.0228 21.342 21.7443 16.575 15.276001 26.4839 16.5407 16.4862 26.6818 16.7665 16.3466 26.5838 38.2738 16.5079 16.4797 26.1665 26.612 26.1463 20.4194 25.1458 40.2241 23.5088 17.8395 40.7511 20.9445 35.1364 16.4665 22.2676 29.537 18.6984 16.6794 18.9278 16.8099 21.1056 16.5796 19.2588 16.2883 27.0799 16.4827 27.0637 27.3387 23.8846 16.6335 26.8973 35.0453 25.7089 20.7331 27.6497 19.8144 38.5188 19.7234 38.2893 20.4828 16.478 32.1047 32.0511 31.947601 16.6615 24.7819 18.267 24.0122 29.9541 39.1191 24.3346 29.9983 30.1842 28.7213 30.7457 16.3761 33.115 16.5201 29.7724 20.9869 31.1656 20.6907 16.5864 16.6919 16.7066 16.7258 25.1374 16.6713 16.7398 18.9786 16.8079 18.8358 18.0593 24.663 39.0257 24.8868 37.2432 24.6244 57.4521 18.952 36.9055 16.6917 20.2334 20.2505 31.8741 32.7481 33.1583 21.1703 32.2386 32.9124 16.5697 33.4041 19.5181 16.4734 33.1873 18.9648 16.4916 33.1877 24.3425 17.5948 24.9411 16.7516 19.7793 16.7913 18.9542 16.7526 26.4094 16.7282 38.3341 42.7128 16.7353 26.311 16.861 16.8449 26.4182 61.1606 32.2462 25.1464 26.1184 35.4409 17.0556 27.0094 42.7803 17.5684 17.207 43.2384 17.0102 26.6226 28.0959 28.3198 27.4339 21.8964 21.0678 20.7649 19.3785 18.8558 19.0808 17.1377 16.9592 16.9808 16.9586 36.755 17.0549 21.9096 21.8475 22.206 21.8456 20.1694 21.8136 50.4968 51.2233 21.1786 20.4683 47.1263 28.9801 28.881 28.7929 22.5827 22.192 22.5862 35.7667 17.7501 17.4004 36.1604 21.6058 17.6635 21.8018 17.3772 38.2731 21.4677 17.1906 21.3855 17.3108 38.5665 38.3778 40.3657 23.2428 38.2921 40.9964 23.0821 23.2916 22.1481 56.0156 22.167 22.9276 55.6387 22.8298 22.7707 31.889297 23.5503 23.4406 31.707703 32.1853 32.3077 37.0922 22.7707 37.0412 17.5969 52.4869 17.5766 17.8467 21.4505 27.4599 42.3588 27.5061 27.6159 33.6487 49.2919 24.4212 23.5991 27.6721 27.8785 45.8512 46.2046 46.487 41.1331 44.7685 21.6882 43.9867 22.8821 35.3878 35.1178 41.3588 52.0217 35.466 42.2015 24.2702 24.1362 55.0705 52.7522 34.2699 53.0768 26.483 34.141 26.8052 53.04 26.6851 26.244 22.9036 25.0643 26.6094 43.692 44.0355 24.5269 24.5698 25.2886 24.2158 28.1085 32.2064 28.3987 27.294 26.8577 59.3793 26.9562 26.289 59.4728 29.1559 28.9563 29.092 59.8102 29.1541 28.7263 28.8457 33.1063 32.1962 25.481 25.4434 56.0986 50.8357 29.1844 69.537 73.1374 25.5598 29.4686 26.8599 28.9781 29.5712 28.1417 54.5043 64.1387 72.0671 29.5176 27.9804 29.0502 43.6372 28.0024 63.843597 28.1479 26.388 59.2162 27.7714 61.471 31.6335 67.3338 27.4015 43.0832 57.9605 26.9378 33.023 59.3985 27.1804 32.8208 46.4931 32.9484 59.7166 63.786804 32.895 52.2269 33.354 33.0509 28.4992 28.1784 32.2551 26.2284 26.4329 45.6904 45.9713 45.0588 27.9751 27.8753 45.2329 29.4725 29.5873 29.8906 33.1662 28.1551 28.2983 30.3895 28.8699 53.2127 61.7422 53.7636 61.4998 28.9692 29.659 48.1165 60.0206 29.2969 29.1353 63.7546 35.0395 48.7212 33.5055 34.3463 34.1726 34.5815 67.1756 30.444 30.8094 36.6124 35.9959 61.4727 31.279198 31.243202 31.0321 31.419899 32.4537 34.0356 34.826 33.1308 49.9491 32.0226 50.6327 49.8987 59.7328 33.8359 34.4815 31.298798 31.2663 31.4762 74.9025 34.822 34.8829 74.9294 34.4807 74.8099 32.7614 32.5903 33.0432 39.4821 38.7789 36.5983 61.8083 35.1645 61.3038 33.9377 33.9467 40.3458 33.9361 40.1965 33.8177 40.2955 34.1306 73.0748 35.2414 73.0697 35.7155 34.2569 36.8739 36.8879 36.7657 71.1133 70.7665 52.4378 25.8186 25.3795 25.7996 52.4419 39.0956 37.4149 37.7855 37.062 44.8015 43.874 44.2402 26.9495 27.3441 27.0462 27.1624 38.3095 38.1398 38.6635 38.4445 45.3009 45.4976 45.4606 45.7824 40.0026 39.8165 39.8204 39.9805 40.3219 39.9389 40.9917 41.1307 38.8657 67.4407 39.0109 39.3919 40.8603 40.6585 40.578 40.3797 40.629 40.1348 40.8012 41.1571 40.9916 40.9781 48.5236 47.7283 40.4897 40.5731 42.3739 42.1048 68.7665 40.9359 68.0171 42.3165 42.2944 42.3868 42.593 41.6085 42.015 41.9605 42.0018 42.7609 86.1925 75.9659 84.9415 43.9807 43.9613 43.8936 43.7699 43.9618 44.0059 44.2482 49.9921 51.3535 51.8453 52.0948 46.9646 84.7942 83.9323 53.3241 53.339 53.201 45.5339 53.0262 45.9518 45.9386 49.9346 49.9122 49.9859 48.4495 49.3968 47.5372 47.7156 46.1484 88.997 48.3483 48.3765 48.4412 48.6521 49.0875 83.6941 83.7551 85.7231 85.6198 80.1984 84.3213 84.4801 87.0353 89.6163 95.9951 97.5092 95.4183 56.5773 55.3166 55.207 100.694 105.1613 104.1203 108.8176 109.8464 106.8669 110.0726 107.5164 125.7581 
PEPMASS=571.271
CHARGE=2+
101.1263 145
102.9908 155
104.0922 722
110.0948 6776
110.9974 322
111.0954 561
113.0137 210
115.0467 198
119.0733 457
120.1052 3539
121.1096 414
122.1071 1884
125.0169 348
129.1281 1970
129.9915 1708
130.1128 1246
130.9203 209
132.106 211
136.1037 2975
137.1066 345
141.4896 2409
141.995 278
144.009 211
144.9933 252
147.1435 719
148.0048 349
148.9353 219
150.4968 1062
154.1578 274
155.1256 183
156.1071 301
157.1292 601
159.1232 840
160.0621 623
160.9343 232
162.023 394
162.1015 160
164.0364 279
166.904 863
168.0307 1152
171.1842 285
172.0084 5281
175.1547 318
176.9306 664
178.0876 379
184.012 1317
184.8723 326
186.0293 323
186.8679 353
190.0237 1212
195.9354 279
198.0298 1426
200.0391 195
200.8935 362
202.0244 10775
202.8911 211
204.041 4854
204.4543 148
204.9276 8481
205.0441 371
206.0044 631
207.13 1007
210.0681 238
210.1206 185
213.9597 785
215.0004 246
216.0429 5285
218.0603 1125
219.0011 1553
220.0365 1348
222.9443 3328
223.2018 275
223.9353 1554
224.1597 672
224.9426 802
225.163 144
226.9932 188
228.9774 132
229.0432 642
230.0616 345
230.1922 177
231.0577 1252
231.1974 285
232.0275 842
233.0162 488
233.9749 181
234.0565 328
234.1676 177
235.0373 806
235.1314 838
237.0168 203
240.9579 374
241.9498 1936
242.2362 147
242.9569 456
243.0615 400
245.9497 194
247.0375 281
247.1955 448
248.0237 833
248.2086 740
250.0372 16507
251.0433 2221
251.2023 479
252.0366 2570
252.1623 2330
253.04 190
253.1578 597
254.0334 517
255.0634 397
256.2196 267
258.0333 591
259.9676 252
260.2504 1495
261.014 266
261.0751 161
261.2545 252
263.0366 6837
263.9644 142
266.2169 871
268.0537 588
269.0152 148
271.0438 552
273.0767 834
273.9551 289
274.2135 167
274.9529 194
275.9683 206
277.9276 138
284.2303 2380
285.235 432
286.8564 559
288.0009 1885
288.8543 165
289.057 7714
290.0494 524
291.0593 296
291.1825 348
291.9797 168
292.0597 216
292.229 126
296.2094 253
297.5305 206
300.9922 166
304.227 359
304.872 308
306.0157 815
307.07 65735
307.2414 3807
307.3261 684
307.4371 1025
307.4902 6034
307.5495 5583
307.8319 363
307.9757 337
308.0776 1009
308.2045 442
308.3479 263
309.0678 1691
309.1996 304
311.0691 372
316.5084 492
317.0076 135
317.5084 160
323.0534 860
323.9783 3121
324.2109 542
324.9861 251
325.0526 513
325.5149 145
325.976 1166
326.0471 638
326.547 143
327.0423 183
330.2622 161
331.7807 372
332.9135 151
333.8619 452
334.504 296
335.02 103
335.8526 267
336.7152 119
336.9818 242
337.9084 115
341.9945 2629
342.2246 131
342.9381 540
342.9994 159
343.2409 292
343.5064 123
343.8903 525
343.9909 921
345.0276 3347
345.2487 135
345.5228 212
346.0307 320
346.5278 128
347.0253 391
347.2995 133
349.0261 174
350.293 174
351.8703 8852
351.9805 258
352.4905 433
352.8836 235
353.4887 321
353.9203 1073
354.4908 164
357.0307 140
360.9505 161
361.0578 407
361.904 236
361.9534 147
362.2809 623
363.0199 294
363.0475 136
363.2799 179
364.012 294
364.3111 160
364.5135 124
365.0154 253
365.5032 285
368.7821 912
369.8871 6161
370.7769 368
370.8908 158
371.8366 114
373.6704 142
375.0424 1604
375.3145 187
375.5462 396
376.0419 416
377.038 148
377.9784 3129
378.9788 288
379.9761 430
380.4722 199
381.0009 218
381.0098 7958
381.5051 179
382.0032 750
382.0176 817
382.5036 253
383.0056 587
383.0097 1597
383.3672 175
383.5039 245
384.0026 222
384.0137 177
385.008 268
385.9487 161
386.7955 598
387.0891 249
387.3226 529
387.8551 183
387.9038 839
388.3209 152
388.7906 232
389.3022 126
389.4812 170
389.9075 152
391.0884 124
393.2967 290
393.5282 199
393.7962 132
394.025 191
395.992 394
398.4662 646
398.7801 223
398.9675 128
399.0264 2643
399.4674 431
400.027 287
401.024 498
401.9837 124
402.0619 198
403.0155 133
403.3211 194
403.9557 165
404.8016 251
407.0596 160
407.2979 551
407.3492 2090
407.7996 361
408.3552 474
408.9076 1116
408.9929 211
409.09 9888
410.099 1178
411.0918 1043
411.5114 161
413.091 277
415.7653 177
415.9354 2023
416.9938 10619
417.3332 221
417.9284 154
418.0004 1131
418.993 1306
419.9989 144
421.0372 306
421.0385 134
421.2753 117
422.045 188
425.0141 322
425.8122 271
426.0739 213
426.9237 382
426.9836 518
427.4871 210
427.9803 841
428.483 316
428.9288 123
428.98 450
429.4765 178
429.7723 321
429.9842 238
430.2611 137
433.7726 134
433.9462 3924
434.3234 154
434.9537 310
435.278 188
435.9537 343
436.502 546
436.8657 130
438.278 120
440.0368 152
440.8194 434
441.3209 134
442.0372 808
443.0223 1197
443.1029 2575
443.8322 272
444.0341 598
444.1088 480
444.4481 205
445.0894 1274
445.8083 242
445.9593 191
446.0913 196
446.3047 140
446.9545 160
447.087 551
449.339 180
449.5954 132
449.8485 150
450.559 539
450.803 302
451.0602 306
451.2988 145
451.5599 557
451.9176 3426
452.0639 187
452.2053 135
452.3343 117
452.5596 326
452.9266 340
453.064 159
453.5617 131
453.9138 1195
454.5197 228
456.9495 157
463.8484 218
464.355 156
466.131 474
469.5449 179
469.9309 779
470.3453 888
470.5606 195
471.0553 150
471.3572 216
471.5468 163
471.9233 246
472.9652 649
473.9729 124
474.9682 145
475.3004 202
475.7973 335
476.2979 246
477.7819 241
477.9564 215
478.2848 294
479.0788 1361
479.5824 523
480.0773 832
480.5753 337
481.0607 132
481.0778 474
484.3136 1588
484.8137 1134
485.3106 549
485.8126 247
486.3001 175
487.3021 152
488.4302 229
489.4193 108
489.7991 345
490.3014 192
490.3656 203
490.9813 1011
491.9859 145
492.9712 135
493.8223 194
494.3208 332
494.8308 180
497.0548 1137
497.0724 148
498.0566 1188
498.0587 336
498.3137 1527
498.5501 496
498.8112 1216
499.0557 641
499.0693 5443
499.3149 565
499.5564 162
499.8112 213
500.0579 248
500.0765 1024
501.0688 1239
502.1092 1764
502.8391 1194
503.0765 250
503.1206 201
503.3381 720
503.8405 303
506.3256 423
506.439 625
506.8341 252
507.322 1649
507.4326 202
507.8208 1263
508.3182 476
508.9527 728
509.3208 472
509.8199 196
509.9578 122
510.9503 713
512.9431 199
514.039 697
514.8155 170
516.0365 169
516.0457 291
516.4264 156
516.5433 138
517.0468 220
517.7752 202
517.8856 844
518.3101 201
518.384 523
518.8853 152
519.0008 121
522.3852 224
525.3239 207
525.8207 150
530.4448 187
530.9396 117
532.1927 254
533.1974 137
534.1874 185
535.0534 566
535.3332 598
535.7851 325
536.3352 159
536.8473 1449
537.0307 5843
538.0399 689
538.0959 993
538.4 368
539.0273 538
539.0937 149
539.3055 374
539.8148 185
543.4109 135
546.3762 140
546.9083 270
548.3929 843
548.8506 371
548.9043 159
549.3581 312
549.4034 287
553.8591 833
554.3625 514
554.6281 122
554.8572 378
555.3545 137
556.1116 184
558.1481 370
558.8856 351
559.1317 325
559.3856 239
559.6348 144
559.7339 116
560.7371 170
562.3729 1778
562.867 3274
563.3693 2067
563.4713 5481
563.868 786
564.3542 255
564.4754 1877
564.7446 130
565.0749 976
565.409 1091
565.474 456
565.7455 537
566.0779 229
566.4198 116
567.9402 135
568.4354 110
569.8917 496
570.1399 398
570.4193 328
570.4285 427
570.4369 537
570.5634 138
570.6109 148
570.6426 129
570.7512 1793
570.8905 234
570.9507 384
571.0868 1909
571.3758 13157
571.4179 329
571.4728 879
571.5668 123
571.7523 415
571.8808 10699
572.0883 207
572.0933 124
572.3817 5618
572.4751 352
572.8835 1894
573.1459 188
573.2865 345
573.3885 526
573.4789 130
573.4902 189
573.5372 145
573.8632 301
574.0754 177
574.2849 113
574.3547 320
574.4367 1085
574.4735 321
574.8486 162
574.9414 716
575.1838 1743
575.4212 1067
575.4595 1371
575.5259 759
575.7516 532
579.3861 137
581.9401 213
582.4364 162
584.3677 225
584.871 135
586.4226 141
592.3367 245
592.8366 123
594.0605 515
595.0533 150
596.0626 249
596.3586 469
596.8554 264
598.0543 145
598.3727 588
598.8775 398
599.3819 148
600.9038 257
606.3535 210
606.8485 153
606.8784 159
607.3664 159
607.3861 249
607.4312 437
608.3845 149
608.44 159
609.3689 255
609.8634 225
613.1417 253
620.4244 112
620.8695 339
621.3636 238
627.4467 116
627.9577 106
632.0485 146
633.9224 221
634.4171 153
634.8886 356
635.3864 212
635.4906 132
636.3628 209
636.8522 165
638.9783 215
639.4668 182
644.4316 174
645.3668 1587
645.8705 1027
646.3686 536
646.866 136
647.3747 129
647.9044 204
648.413 155
648.8829 147
651.095 380
651.8713 187
652.0859 119
653.0914 173
655.4069 161
655.8938 206
656.3949 157
659.8829 944
660.3873 891
660.887 311
662.5582 3322
662.8951 113
663.4108 159
663.5628 1458
663.9181 119
664.5689 344
664.8867 226
665.3893 201
665.8663 151
667.9648 126
668.4652 112
670.4139 143
672.4256 936
673.394 155
673.4246 327
673.8832 3867
674.3854 3042
674.495 574
674.8871 1227
674.9962 460
675.3858 457
675.4975 214
675.8829 201
676.5079 336
677.425 212
677.5115 145
677.9288 140
678.4079 103
684.4166 285
684.9205 258
685.4213 128
685.4822 997
686.4911 367
687.0686 137
688.1328 223
688.4685 171
688.7951 119
689.068 190
694.4179 137
698.4178 279
698.9233 253
699.4226 123
701.0091 166
701.5099 201
702.0062 136
702.4728 103
702.8147 322
703.144 259
703.4762 183
707.4282 327
707.9224 377
708.4305 396
708.9268 164
710.0195 1951
710.5194 1730
711.021 783
711.5253 282
716.4363 4533
716.9365 3438
717.4408 1551
717.9438 528
718.4375 257
718.935 144
719.9682 214
720.4627 168
721.4327 268
721.4569 218
721.9341 352
722.4255 180
729.9452 538
730.4363 4521
730.9382 3598
731.442 1618
731.9402 548
732.45 211
733.9678 395
734.4581 259
734.9574 223
735.4438 148
738.5477 257
739.0571 208
742.966 139
743.4484 291
743.9529 467
744.4569 342
744.4617 136
744.9581 122
745.4861 146
751.9591 3682
752.4631 2839
752.9654 1296
753.4669 541
753.9697 260
756.9534 343
757.4545 511
757.9535 381
758.4557 172
761.6489 447
762.492 127
762.6531 306
765.9588 8334
766.4616 6796
766.9657 3491
767.4695 1258
767.9626 611
768.4732 265
768.9633 145
774.0655 259
774.5791 178
775.0826 116
783.0533 223
783.5395 114
784.564 563
785.5745 306
791.5676 2002
792.0685 1831
792.5683 1065
792.9887 133
793.0688 373
793.4911 131
798.4776 117
801.5032 1262
802.0071 1201
802.5093 590
803.01 240
803.5067 120
806.4768 152
806.987 265
807.5025 175
813.58 145
815.5042 2252
816.0064 2137
816.5071 1046
817.0158 480
817.5121 192
830.5326 379
831.5344 204
833.574 415
834.5761 221
841.5172 132
858.5457 963
859.5385 577
860.5515 190
876.5567 138
890.6032 1475
891.6046 572
892.6045 194
893.5602 193
894.0774 134
894.5681 112
897.6753 545
898.6865 283
996.6065 140
1004.6777 798
1005.6711 617
1006.6688 231
1013.6401 155
1015.6312 229
1034.7612 239
END IONS
BEGIN IONS
TITLE=Spectrum 1MVNNGHSFNVEYDDSQDK_1049.csv DRIFT_TIME=11.1817 11.0229 11.3297 11.2934 11.2647 11.3865 11.3724 11.3521 11.4173 11.3855 11.6486 11.4059 11.2952 11.343 11.3961 11.8256 11.3736 11.6368 11.8599 11.8005 11.8836 12.0109 12.349 13.0585 12.7892 13.1979 14.1756 13.5416 13.7181 13.7387 13.7322 15.6726 13.5761 15.6071 22.3187 15.0954 19.2814 14.9249 23.3115 18.8685 21.2361 20.4918 18.419 18.186 23.4243 22.8544 21.7491 18.8478 18.8408 22.3219 16.9313 25.401 20.9648 21.0067 21.6277 17.2833 17.3993 17.3704 27.5171 23.8012 25.8257 21.3841 22.4988 22.4605 22.4153 22.9979 29.6425 28.7175 19.8554 29.9925 30.1555 24.7195 24.5027 20.3266 20.1217 25.9907 12.1702 27.7269 27.0934 20.5561 22.5564 22.8187 22.4221 22.654 12.3628 33.1331 12.4407 32.3403 27.2516 25.7884 14.5896 12.5444 12.6914 13.0501 12.7495 12.7667 27.2277 12.7839 27.3711 27.3739 28.0648 23.9359 23.4464 24.1742 23.7808 15.340401 13.0704 12.9932 13.012 13.1307 12.9599 31.151299 31.543999 34.9832 12.5161 12.7625 17.4873 24.0683 16.4803 23.9876 16.5893 16.5435 12.7473 13.1976 12.6987 13.772 12.8638 13.4021 30.6769 13.7784 26.2682 25.924 30.4646 13.2948 12.8651 13.0945 12.8522 25.074 34.6117 13.2568 13.08 20.0204 13.5707 19.9682 19.7859 39.2757 39.4412 32.0061 32.2967 32.0231 32.2783 13.4351 13.3166 13.3699 13.4174 24.8198 13.4682 13.5799 13.5519 25.5549 13.7257 43.2214 41.6222 28.2808 28.5278 28.5019 34.2157 34.2701 34.2514 34.2984 12.9146 13.9852 34.1802 13.7968 13.9086 33.8853 13.6678 14.0775 33.7686 14.1438 13.8379 45.0942 44.8896 34.0753 34.0876 30.9237 33.6191 33.2959 13.4958 14.2539 33.2753 42.2402 14.6879 25.067 13.5982 13.6605 36.7872 35.6122 35.7917 35.5428 44.8706 35.1254 44.526 15.119801 35.5374 44.4448 35.573 25.3345 35.1321 13.9897 14.3252 14.0756 14.3566 31.8167 31.151299 31.411697 32.0572 27.1142 34.4536 35.0814 35.4665 37.147 36.7878 36.9916 37.0117 37.0462 50.1515 37.3277 50.339 28.5147 37.4117 47.5224 16.0222 29.45 48.7379 47.9372 25.9823 26.3531 30.1546 25.9393 51.9101 35.0125 51.8913 34.6093 39.6511 50.7007 35.1804 49.928 39.7308 34.8987 39.0358 39.8504 40.3558 51.1559 38.7548 51.6645 38.754 38.3544 38.5299 38.2723 28.8846 29.5389 37.8089 35.7071 42.9625 42.7873 41.5375 20.3181 38.011 37.9229 38.143 38.1671 38.2018 31.6641 37.9215 37.9031 32.0072 32.1668 32.4702 40.9676 39.9449 45.9037 46.0292 33.064 33.6458 40.7016 41.354 41.0396 41.4854 41.0834 40.9573 41.0317 32.3131 32.3331 32.54 43.7326 42.9172 44.1757 43.9444 62.0239 43.9965 43.9952 44.0944 43.7752 43.5909 35.0105 44.3182 67.0987 65.895 43.2361 28.0158 36.7045 36.3782 36.1517 67.026 42.9686 47.0839 46.3638 46.9311 41.7094 67.1679 50.8004 38.0509 48.332 37.9852 38.1996 47.133 46.2157 39.1555 38.9582 38.9529 39.8339 44.6936 45.2211 45.6074 45.2775 45.3406 48.9577 41.6813 48.5399 41.6608 48.3223 42.264 42.3054 42.2126 42.3526 41.702 41.3532 76.0136 77.1884 77.2389 78.1302 77.9793 43.5043 50.0664 49.8004 44.8342 79.3986 44.4661 45.0138 79.0965 45.3791 46.281 46.0808 46.4223 45.4352 46.4361 47.0675 46.9051 80.6169 47.0555 46.8156 79.9387 47.1107 78.2735 51.2928 51.6744 52.1709 51.1791 52.1724 54.7237 93.9993 90.5123 50.4278 98.7999 104.4417 73.1385 72.2037 72.4666 124.3797 131.8066 130.1019 
PEPMASS=1049.9445
CHARGE=2+
56.0593 433
57.0442 271
70.0765 389
72.0936 191
84.0942 898
104.0871 657
110.0891 400
122.1001 1660
123.1041 146
129.1209 368
129.9859 154
130.1082 430
136.0986 451
147.1353 195
158.1246 510
172.0037 297
195.1171 151
202.0172 719
203.1519 615
216.0348 297
226.1568 217
227.1377 188
250.0269 757
262.1813 1315
263.0314 343
263.1872 180
286.1631 149
289.0488 584
307.057 15194
308.066 1880
309.0578 1643
309.1828 119
311.0587 358
314.1508 134
340.2375 129
345.0168 1169
345.2153 236
347.0101 209
357.3054 338
371.1338 135
372.2501 323
373.2356 577
380.999 698
382.9991 311
390.266 369
395.2505 272
396.2347 150
399.008 262
401.0099 147
409.0769 163
409.0875 144
414.2582 114
416.9774 469
418.9778 305
423.2479 235
434.9948 3721
435.9925 285
436.9921 172
442.2667 137
445.057 193
446.2337 133
447.039 719
454.9358 717
456.9315 320
458.931 142
459.0833 157
459.2867 210
460.2905 122
472.9491 540
477.3119 1669
478.3138 380
483.0172 559
485.0163 144
490.9642 822
492.9629 141
497.0321 112
498.0406 212
499.0495 136
504.0692 254
507.8734 111
508.9327 1181
509.9356 138
510.9307 574
512.9313 117
516.0277 473
516.3134 333
517.0284 277
517.3082 127
518.9976 403
520.9973 214
521.7385 285
524.4814 136
525.4791 147
534.0202 205
535.0041 394
536.0098 232
537.0106 1256
537.0124 193
538.0088 203
539.0081 212
540.0553 213
546.8868 2259
547.8935 205
548.8849 570
550.8813 196
551.2391 132
552.9955 390
553.995 565
554.4968 208
554.9948 313
555.9921 137
556.0867 649
557.09 166
561.2766 123
561.9987 473
562.4968 144
563.7924 121
564.8961 524
566.7626 830
566.8975 178
567.2621 400
567.7628 181
570.4563 203
570.9677 154
571.4688 173
571.9788 264
572.4678 174
572.9801 182
572.9927 437
573.9834 152
574.9724 905
575.9638 150
576.0196 119
579.9968 366
580.9804 536
581.4834 192
581.9798 169
582.8806 241
585.1312 158
588.4451 270
589.4452 316
590.3351 592
590.4476 127
590.8405 388
591.3439 130
592.3606 1007
593.3565 249
594.0385 2123
595.0414 406
596.0461 509
598.0381 291
598.9711 841
599.4773 354
599.9731 934
600.4625 288
600.8827 712
600.973 422
601.4668 169
601.9743 170
602.8847 151
607.4411 143
608.3642 280
609.3553 136
610.9516 947
611.955 129
612.9432 214
613.1153 3184
614.1239 1108
615.1147 1532
616.1178 586
616.4358 142
616.9651 504
617.114 898
617.4572 165
617.9615 650
618.1159 188
618.4618 276
618.9602 396
619.103 140
619.4667 160
619.9594 173
625.3938 616
626.401 338
630.0199 564
631.0308 113
631.9989 843
633.037 155
634.028 326
634.4206 125
635.9437 162
636.0297 127
636.3625 158
636.9388 173
638.8442 658
644.9508 381
645.9472 192
649.1038 247
651.0677 3369
652.0696 1053
653.0706 1300
653.3984 823
654.0738 483
654.3827 235
654.9331 154
655.0668 771
655.4039 124
656.0713 243
656.8566 240
657.0642 179
662.9367 319
663.4216 140
663.9326 282
664.9281 143
664.9474 727
665.9487 166
666.9401 127
667.9792 372
674.8175 192
676.1207 116
684.0174 295
686.0121 125
687.0567 1115
688.0561 293
689.0307 2464
690.0397 501
691.0401 853
691.4294 689
692.0425 208
692.4291 233
692.8269 362
693.0376 276
695.4179 106
700.9144 112
702.8955 323
707.4054 720
708.4056 257
708.9009 219
709.3994 191
710.8066 127
711.9077 129
712.4499 139
721.9759 1270
722.4262 140
722.9676 212
723.0367 137
723.4261 162
723.9687 291
724.3684 127
725.021 398
725.9728 155
726.0253 139
727.0083 285
729.0356 128
740.4449 503
741.0486 1629
741.4488 240
742.0521 548
743.0474 595
744.0576 222
745.0472 320
753.4831 136
753.9722 121
757.9605 203
759.932 391
760.9928 381
762.9845 394
765.0176 111
772.4284 121
779.0006 3068
780.0067 841
781.0006 1226
781.9999 337
782.9971 618
783.4432 170
784.0115 154
784.9996 115
792.459 421
792.9579 339
793.4596 141
795.9057 181
797.9067 118
798.9621 123
800.9583 111
810.0334 143
810.5205 114
814.9811 584
815.9899 153
816.9649 1594
817.9759 341
818.9709 421
819.9653 137
820.9499 132
820.9746 227
821.4781 187
821.9785 134
831.8966 108
833.8729 184
850.9895 154
852.9402 1980
853.478 142
853.9371 397
854.9335 1007
855.9429 230
856.9355 288
858.9402 109
869.4931 118
869.834 117
870.4996 698
871.4979 336
871.8519 120
875.1922 113
878.0089 190
878.4953 218
878.9925 141
887.5341 183
887.8662 133
888.9221 446
890.9115 463
892.9008 266
906.9448 203
922.5484 208
924.9077 124
926.5243 339
926.8699 303
927.0305 246
927.5257 129
928.863 298
930.858 127
935.0355 487
935.5407 528
936.0355 347
936.5431 123
942.8957 111
944.8874 1357
945.8867 336
946.8919 282
948.8858 130
980.873 422
981.5493 113
981.8894 106
982.06 125
982.8462 285
984.5988 164
985.095 168
985.5868 133
990.0495 176
990.5581 198
991.0754 149
999.5553 546
1000.5694 342
1001.5812 371
1002.588 210
1003.5726 148
1004.0846 108
1018.8327 472
1020.8249 242
1032.5858 167
1032.6414 175
1033.0604 227
1033.5828 169
1033.6442 192
1034.086 125
1041.1049 377
1041.5983 912
1042.1005 720
1042.607 452
1043.0837 196
1050.1086 1675
1050.6068 1969
1050.6602 1227
1051.1082 1397
1051.615 633
1051.6616 666
1052.1128 283
1052.689 219
1052.7169 178
1053.0428 310
1053.3723 209
1053.7177 122
1054.8029 132
1092.7664 129
1098.6495 179
1100.6781 213
1110.7708 130
1212.6986 300
1229.7412 223
1400.4397 158
1400.9137 150
1401.4233 122
1446.837 267
1446.8383 265
1447.851 226
END IONS
BEGIN IONS
TITLE=Spectrum 1QSPVDIDTK.csv DRIFT_TIME=16.3109 17.4302 16.1662 16.2331 18.3111 18.0107 18.5116 17.578 17.6177 16.7346 16.3758 16.472 16.3154 16.3802 19.6293 16.3675 16.6832 19.4341 16.5111 17.4179 16.805 19.1957 18.6356 19.6001 19.2269 19.7772 20.3938 20.2672 16.9727 16.93 16.2134 16.6895 19.1746 19.9379 17.0404 19.1594 19.1424 16.1663 18.8846 19.4815 19.2256 16.978 19.0959 16.9047 19.6971 16.6117 17.2521 20.6366 17.6265 22.2857 17.4287 18.8176 17.2453 19.1924 17.383 20.3269 20.0316 19.2953 20.5635 19.9641 21.9953 17.0804 18.9713 18.2432 18.2883 18.6866 19.2425 17.9951 18.4928 17.3199 20.8427 17.3371 17.1495 20.6615 21.8125 18.1817 20.7466 17.7148 20.5603 20.3279 28.7725 18.6489 20.3238 21.6269 17.9722 21.6381 22.2889 20.3028 20.1245 21.8319 18.7967 19.1222 21.2471 21.6706 21.5672 18.5187 19.8859 23.8644 22.8842 23.9223 20.2981 20.0795 21.629 21.3312 21.3767 22.5037 27.83 21.3212 21.2979 21.7158 21.1421 20.5915 22.1718 26.9127 22.0244 22.1365 19.6439 19.6864 22.2776 24.0751 23.325 20.8746 23.0005 22.8301 23.1176 26.4051 26.1683 22.957 22.5079 31.3396 24.3789 26.561 22.4034 24.2643 26.831 25.9922 24.7363 25.6058 25.3607 28.0546 32.449 22.2663 22.7066 22.3107 28.6127 28.8056 29.7715 22.8509 29.0583 30.7498 25.2309 28.6208 28.6617 25.5139 29.0317 28.9271 25.7645 25.5655 25.5432 25.5182 20.6496 25.6878 25.2971 28.9461 30.9368 28.1692 29.9053 23.6527 21.5094 34.8969 23.1393 23.3577 22.4465 28.6525 28.3575 30.1198 30.858 26.1948 26.4002 21.3799 26.1401 26.2068 34.051 26.1138 31.5191 28.2942 31.852402 30.1928 31.1344 23.7129 16.389 31.204498 24.2868 23.7693 32.1665 31.576 30.0006 25.0098 33.2319 24.2115 29.7343 35.1454 31.2416 27.7697 30.3817 32.7877 28.9171 32.594 28.9794 29.2051 31.1744 31.281403 30.4946 34.2667 23.7948 35.3327 31.674202 17.1231 36.3993 20.7361 16.9539 24.1785 33.2026 16.9309 16.8926 40.6603 16.8687 32.2272 27.7645 25.4275 34.6218 25.4907 27.1881 17.0499 31.070099 17.2551 33.1986 31.132797 17.1153 31.2835 27.9708 31.494102 31.328697 39.3895 30.8382 39.1069 38.5889 31.051598 37.9651 25.6988 17.3509 17.4182 17.3062 17.5521 27.0874 35.1274 37.8778 44.4056 35.8624 29.0174 46.0845 28.275 37.0884 17.517 18.2645 18.1518 18.0763 42.9753 18.4123 44.9268 31.0481 34.3152 23.8841 23.6993 36.0017 23.4796 17.9624 36.5245 48.7147 36.9267 34.6887 39.9066 43.0726 29.1938 35.246 29.3034 36.9662 26.2877 36.3793 45.4849 17.8181 35.108 43.0727 17.8577 17.9237 34.9574 42.7756 35.0931 45.2503 35.2116 36.5769 47.2262 26.5621 36.7896 36.9336 48.1326 17.7877 34.3917 29.239 42.4935 26.3138 18.704 36.1545 26.1583 45.1703 19.0623 18.7279 45.4549 45.7551 50.3684 49.6747 26.5911 19.2588 42.0367 41.6373 42.2339 32.8891 27.201 33.5592 51.903 34.5015 33.8841 23.1091 42.8403 48.1753 23.2874 34.2009 22.8963 43.0022 53.0952 26.4479 42.5832 41.8033 43.099 30.1081 28.096 28.6355 26.8718 54.4317 27.636 27.2308 27.2622 28.7546 52.2424 30.4542 30.2862 53.098 30.5669 30.5269 51.604 59.7125 34.4253 59.4934 43.2003 50.0469 30.9824 34.6533 28.7509 49.9231 29.0678 44.136 37.8456 31.881302 32.612 48.9901 32.8182 55.851 54.2294 50.5095 51.1416 39.5653 33.0601 33.261 23.0277 23.1185 23.0044 48.9935 59.2186 58.5274 33.4799 54.9468 58.3254 32.3015 39.3975 58.7852 38.5456 32.1415 32.1328 32.9589 33.2026 55.8576 33.0649 33.1776 33.2115 58.3301 33.1508 58.5956 59.1734 33.4799 33.496 33.3064 24.5501 24.6294 24.9408 40.6344 57.6643 34.5537 58.0201 34.7111 64.7764 51.0693 71.013 35.1638 53.2954 51.2133 54.2256 68.3131 60.8589 71.0028 71.7133 71.3659 38.6414 36.8263 63.4591 36.8867 33.9967 36.9889 70.068 36.7579 37.2519 37.1267 70.0389 46.2317 63.454605 37.2044 60.922 37.4275 37.4548 37.6195 37.2383 38.2619 38.1462 38.023 59.173 37.7186 36.0864 39.8129 78.877 39.5191 78.8781 39.5637 38.8023 102.825 38.8958 65.3099 65.4839 67.4679 60.792 74.7242 75.0251 75.354 78.9853 87.0191 87.3736 88.7005 83.3449 83.2425 86.9423 86.728 90.1866 69.157 85.7858 85.2887 92.1352 89.593 94.1244 87.6464 91.4784 92.1744 102.2425 103.9713 102.3812 103.2552 104.5576 103.2651 118.1624 109.9967 105.535 107.7924 115.3126 114.1919 114.4082 126.799 120.163 124.8621 119.4559 119.0755 124.4537 127.8156 131.1184 124.4596 130.0432 118.7473 131.1568 137.2153 131.5182 143.6717 149.1756 156.769 
PEPMASS=501.762
CHARGE=2+
101.0931 770
102.9916 251
104.093 799
110.0958 636
112.0319 143
113.0173 215
114.9769 9332
116.0283 1367
117.0135 510
120.1063 255
122.1074 1688
125.0973 564
126.0821 5781
127.0852 603
128.9967 1242
129.0946 508
129.1305 2458
129.992 1066
130.1144 2924
131.0285 258
131.1193 207
131.9876 248
132.992 4702
133.9973 1619
134.9935 353
135.9936 392
136.9608 180
140.9992 373
141.0945 165
141.1337 466
141.4918 346
143.1131 890
144.9945 1876
147.0121 448
147.1445 1681
148.0055 457
150.0018 135
150.4992 191
151.0051 708
152.0125 793
152.0347 456
152.1119 304
153.0066 159
153.0986 670
154.01 270
154.0852 382
154.1566 170
154.9753 185
156.136 172
156.9833 177
157.1323 420
158.0467 281
158.1288 148
159.0151 756
159.1157 203
160.0636 534
162.0264 470
163.0103 1086
164.0369 340
166.0202 214
166.9054 1058
167.1205 370
168.0332 153
168.1166 123
169.1332 476
169.1699 2265
170.0489 200
170.1292 4962
170.1752 213
171.1136 3442
172.0115 1175
172.1164 364
173.0961 155
174.0121 300
174.9956 628
175.1584 181
176.0035 227
176.0597 565
177.0286 185
178.0806 283
179.0406 158
181.099 206
182.053 312
184.9193 177
185.1343 155
185.2027 137
186.0303 742
186.1286 121
187.1511 200
188.0133 434
188.1437 1572
189.1421 235
190.0278 700
193.0067 21451
194.0149 557
195.1209 336
195.9373 1083
196.0489 165
197.1745 242
198.033 794
198.13 1029
199.1181 323
201.1675 1224
202.0305 1246
204.0449 4196
204.1771 189
205.0279 131
205.0487 540
206.0422 2252
207.0429 251
208.039 1770
209.1374 233
210.0003 222
210.1269 486
211.0216 15533
212.0268 335
213.1336 339
213.9524 591
215.1468 143
216.0489 657
216.145 307
217.1317 209
219.002 194
220.0317 389
222.0245 405
223.0356 200
223.9377 1319
224.0223 198
225.9563 835
226.1235 158
226.1257 223
228.1402 404
229.0372 761
229.1666 358
230.2004 916
231.1934 219
232.0286 1631
233.0264 156
234.0238 235
240.1838 148
240.2235 138
241.9513 4639
242.957 256
243.9674 930
244.0361 191
244.1381 193
244.2176 258
244.9667 109
245.9524 214
246.1116 264
248.0273 155
248.2133 7089
249.2173 1088
250.0414 8147
250.1726 376
250.2213 167
251.0468 1446
252.0381 12419
253.0435 2267
254.036 6962
254.9839 163
255.041 742
256.034 720
256.1424 182
257.2163 443
258.0719 322
258.2012 808
259.9217 3770
259.9679 991
260.2558 155
260.9235 129
261.9185 1005
261.9852 244
262.0515 545
263.0436 394
263.9626 199
264.1221 128
268.0582 1208
269.0601 136
269.953 221
270.0544 1976
271.0603 307
271.9857 139
272.0497 967
272.1832 582
274.05 420
275.2301 590
275.9707 202
276.828 396
277.9359 4309
278.5583 242
278.825 197
278.9437 135
279.9348 1392
280.0181 586
281.1642 473
282.0197 829
282.9873 1598
283.2038 306
283.9842 247
284.0194 223
284.2283 110
284.9649 141
288.0039 544
289.0623 1659
289.9902 222
291.1081 1909
292.0642 392
292.1108 250
293.0959 239
293.9865 251
294.8447 448
294.9911 131
295.2025 211
295.95 909
296.1887 338
296.8393 240
297.0056 154
297.2098 113
297.2163 311
297.5339 873
297.9514 363
298.0297 317
298.0366 168
298.5345 187
299.2678 131
299.517 214
300.0305 225
300.9228 174
301.0036 741
301.1793 110
302.003 129
306.0211 575
307.0702 185
307.0749 6511
307.5058 154
308.001 128
308.0802 1156
308.5131 294
309.0736 1410
310.0087 142
310.084 171
311.0733 374
312.2234 4831
312.8596 325
313.2276 916
314.2261 154
314.8537 258
315.2356 171
315.9488 138
316.5103 1666
317.0117 382
317.512 552
318.5134 184
318.9321 352
319.0084 137
319.2299 205
319.2671 124
320.0644 748
320.9494 3704
321.2797 242
321.9407 201
323.9754 170
325.5205 664
326.0494 1667
326.5467 332
327.0498 439
327.2353 112
328.042 147
328.2541 118
330.8714 126
331.0819 377
333.214 971
333.7261 484
334.0135 1009
334.2232 623
334.5221 395
335.0166 179
335.1903 210
336.0109 115
336.9499 429
336.9861 118
338.1828 170
338.9625 5669
339.057 928
339.9635 139
342.001 348
342.7358 723
343.992 206
344.2194 432
345.0273 2550
345.0321 4339
345.2497 568
345.53 560
346.026 520
346.0345 536
346.235 134
347.0302 499
347.3032 247
349.0308 160
349.0986 150
349.2642 132
351.8813 843
352.0285 665
353.0314 157
353.2133 104
354.0338 262
354.9657 315
356.9804 667
358.2128 165
362.7398 775
363.0228 530
363.0471 426
363.2411 148
363.2654 3327
363.5163 151
364.0213 257
364.2742 590
365.2792 140
366.3013 125
367.2837 186
369.8939 1332
372.0282 134
373.1426 920
374.143 242
375.1368 415
375.9625 104
376.7358 557
377.9831 559
379.2729 168
379.9816 1290
380.9767 141
381.0133 345
381.0167 1316
381.2556 134
381.5156 108
381.9771 554
382.0089 278
382.0133 183
382.3252 162
382.7409 163
383.0145 484
383.0913 397
385.0131 132
385.2887 234
385.7455 934
386.25 178
387.9054 675
388.3406 773
391.2557 711
391.7493 658
392.2549 121
392.7568 357
394.2922 549
394.2941 3805
394.7969 1906
395.2812 173
395.2998 567
395.8009 115
396.3027 117
397.3288 828
397.9953 433
398.3399 254
399.0355 838
399.2753 579
399.7765 184
399.9936 171
400.2622 1211
400.2773 157
400.768 208
401.0303 426
401.9879 120
404.285 233
408.9108 775
409.1009 148
410.2822 170
410.3307 437
411.3238 107
412.268 106
413.2881 108
415.9366 285
419.2936 824
419.7907 188
422.0502 608
422.5531 134
423.05 223
425.1004 226
425.3349 597
426.3283 121
426.9282 744
427.2792 418
428.3453 151
433.2933 531
433.9514 782
435.2481 153
435.9538 115
437.8167 156
438.3208 114
438.802 125
439.2968 135
440.2716 127
441.8092 259
442.2992 3671
442.8031 708
443.3116 418
443.8301 270
444.3177 122
445.302 298
445.8153 194
447.8093 1156
448.3035 835
450.5667 1108
451.0685 305
451.5701 317
451.9638 130
453.2692 215
456.8138 1933
457.2978 161
457.3155 474
458.3615 247
459.1096 321
459.3945 277
461.8527 269
463.1195 184
465.1128 270
466.1308 301
468.3509 271
470.2958 135
476.377 1751
477.3776 545
478.3787 134
479.8473 125
482.3467 204
483.2798 242
483.845 301
484.2661 212
484.3519 213
484.3829 105
484.8464 143
488.3476 469
488.8415 545
490.3739 149
490.9915 184
491.3269 169
491.348 169
492.3214 203
492.8562 1780
493.3567 1048
493.8605 328
494.3552 139
497.3528 4017
497.8472 2640
498.351 354
499.0697 210
501.3469 187
501.8278 139
502.4113 177
503.463 499
504.4015 369
504.4767 170
504.9065 259
506.3594 4724
506.5837 436
506.8646 1264
509.342 1941
510.3461 601
526.342 264
537.0379 379
540.384 2748
541.3865 796
542.3906 221
544.3826 129
556.4662 2174
567.4095 527
568.3996 145
573.4094 310
574.4159 157
591.4271 3710
592.4273 1172
593.4315 365
594.0644 321
594.4468 125
622.4437 204
622.4487 281
623.4404 174
623.4484 164
627.4398 207
639.4573 275
641.4562 221
670.5341 478
671.4042 191
684.4701 201
690.5179 1763
691.524 682
716.4385 135
722.4531 274
734.4632 223
737.5096 900
738.5086 357
741.5986 333
752.4839 193
764.485 229
769.5835 223
770.4857 111
770.5665 147
781.512 386
782.4983 242
787.5854 1999
787.5886 1951
788.5917 823
788.5929 1071
789.5962 370
799.5221 427
807.5765 180
856.6364 340
856.6367 283
874.6461 285
913.6735 902
913.6756 691
END IONS
BEGIN IONS
TITLE=Spectrum 1SHHWGYGK_01.csv DRIFT_TIME=23.6446 23.541 23.7564 23.392 23.119 23.366 23.4168 27.7153 23.3211 23.251 28.5768 23.87 23.3936 23.1426 23.4313 23.3369 23.805 23.587 23.3567 23.3084 23.3594 23.3818 23.5543 23.6574 23.9958 23.7554 23.5046 24.6309 23.9859 23.2512 23.4139 23.5124 23.338 23.818 24.4408 23.7715 23.8092 23.7088 23.9071 23.6001 23.6354 23.7696 23.5414 24.3855 24.7494 24.0473 24.8033 25.0425 23.5521 24.9635 24.9844 23.8623 25.2626 23.3203 24.1389 25.0546 24.4565 25.2646 25.1949 24.9813 24.9159 103.1384 
PEPMASS=486.23
CHARGE=2+
53.0192 579
53.0435 320
54.0153 258
54.0394 703
55.0234 1661
55.0601 4196
56.0549 498
56.9705 116
59.0549 4253
67.0607 1365
67.975 286
68.0201 171
68.0558 465
69.0406 228
69.0757 15321
70.0787 893
72.0871 456
74.1024 163
77.0461 495
79.0605 1842
80.058 2784
81.0764 842
82.0716 1033
83.055 313
84.0511 1356
84.0867 473
86.0658 132
86.1032 675
89.0668 535
91.0609 1004
93.077 1020
94.0721 711
95.057 332
95.0929 960
96.0885 1656
97.0728 1134
98.1068 154
101.0667 452
102.0626 966
103.0622 1213
105.0511 739
105.0776 646
106.081 148
107.0818 150
110.1044 22163
111.0529 718
111.1076 1915
112.1212 516
113.0654 177
113.1256 155
114.1002 3289
115.0614 227
115.1018 236
117.0435 232
117.0783 317
118.1318 201
119.094 4579
120.0918 1616
122.1048 26498
123.1098 2751
124.085 170
398.2117 984
END IONS
BEGIN IONS
TITLE=Spectrum 2SHHWGYGK_01.csv DRIFT_TIME= 23.9071 
PEPMASS=486.23
CHARGE=2+
102.0626 966
END IONS
BEGIN IONS
TITLE=Spectrum 3SHHWGYGK_01.csv DRIFT_TIME= 23.818 
PEPMASS=486.23
CHARGE=2+
95.0929 960
END IONS
BEGIN IONS
TITLE=Spectrum 4SHHWGYGK_01.csv DRIFT_TIME= 23.3369 57.2892 69.7446 
PEPMASS=486.23
CHARGE=2+
70.0787 893
234.1525 887
268.1863 865
END IONS
BEGIN IONS
TITLE=Spectrum 5SHHWGYGK_01.csv DRIFT_TIME= 24.8584 
PEPMASS=486.23
CHARGE=2+
130.0865 853
END IONS
BEGIN IONS
TITLE=Spectrum 6SHHWGYGK_01.csv DRIFT_TIME= 23.3818 45.5827 
PEPMASS=486.23
CHARGE=2+
81.0764 842
218.1265 833
END IONS
BEGIN IONS
TITLE=Spectrum 7SHHWGYGK_01.csv DRIFT_TIME= 36.5078 
PEPMASS=486.23
CHARGE=2+
192.103 830
END IONS
BEGIN IONS
TITLE=Spectrum 8SHHWGYGK_01.csv DRIFT_TIME= 26.2195 
PEPMASS=486.23
CHARGE=2+
141.0211 781
END IONS
BEGIN IONS
TITLE=Spectrum 9SHHWGYGK_01.csv DRIFT_TIME= 23.6354 24.0473 
PEPMASS=486.23
CHARGE=2+
105.0511 739
111.0529 718
END IONS
BEGIN IONS
TITLE=Spectrum 10SHHWGYGK_01.csv DRIFT_TIME= 23.5124 
PEPMASS=486.23
CHARGE=2+
94.0721 711
END IONS
BEGIN IONS
TITLE=Spectrum 11SHHWGYGK_01.csv DRIFT_TIME= 23.392 27.4264 30.1505 
PEPMASS=486.23
CHARGE=2+
54.0394 703
139.1044 701
183.0501 693
END IONS
BEGIN IONS
TITLE=Spectrum 12SHHWGYGK_01.csv DRIFT_TIME= 24.6309 23.5178 
PEPMASS=486.23
CHARGE=2+
86.1032 675
205.1014 667
END IONS
BEGIN IONS
TITLE=Spectrum 13SHHWGYGK_01.csv DRIFT_TIME= 23.7696 23.2476 
PEPMASS=486.23
CHARGE=2+
105.0776 646
183.0867 606
END IONS
BEGIN IONS
TITLE=Spectrum 14SHHWGYGK_01.csv DRIFT_TIME= 26.3734 109.6642 
PEPMASS=486.23
CHARGE=2+
143.0361 604
410.2154 599
END IONS
BEGIN IONS
TITLE=Spectrum 15SHHWGYGK_01.csv DRIFT_TIME= 23.6446 88.287 
PEPMASS=486.23
CHARGE=2+
53.0192 579
342.1753 563
END IONS
BEGIN IONS
TITLE=Spectrum 16SHHWGYGK_01.csv DRIFT_TIME= 32.4414 45.9034 
PEPMASS=486.23
CHARGE=2+
162.0873 560
217.0921 537
END IONS
BEGIN IONS
TITLE=Spectrum 17SHHWGYGK_01.csv DRIFT_TIME= 23.9859 28.6748 
PEPMASS=486.23
CHARGE=2+
89.0668 535
155.0813 522
END IONS
BEGIN IONS
TITLE=Spectrum 18SHHWGYGK_01.csv DRIFT_TIME= 25.0425 28.7889 46.3097 
PEPMASS=486.23
CHARGE=2+
112.1212 516
177.0215 509
216.1373 509
END IONS
BEGIN IONS
TITLE=Spectrum 19SHHWGYGK_01.csv DRIFT_TIME= 23.4168 23.3567 23.7554 63.171906 
PEPMASS=486.23
CHARGE=2+
56.0549 498
77.0461 495
84.0867 473
262.1163 467
END IONS
BEGIN IONS
TITLE=Spectrum 20SHHWGYGK_01.csv DRIFT_TIME= 23.3936 146.7275 
PEPMASS=486.23
CHARGE=2+
68.0558 465
490.3756 465
END IONS
BEGIN IONS
TITLE=Spectrum 21SHHWGYGK_01.csv DRIFT_TIME= 91.1234 
PEPMASS=486.23
CHARGE=2+
401.1361 463
END IONS
BEGIN IONS
TITLE=Spectrum 22SHHWGYGK_01.csv DRIFT_TIME= 23.805 23.7088 30.1449 68.1779 94.6016 
PEPMASS=486.23
CHARGE=2+
72.0871 456
101.0667 452
156.1119 423
286.123 407
342.1707 404
END IONS
BEGIN IONS
TITLE=Spectrum 23SHHWGYGK_01.csv DRIFT_TIME= 29.4979 47.5509 
PEPMASS=486.23
CHARGE=2+
159.0337 399
227.0772 375
END IONS
BEGIN IONS
TITLE=Spectrum 24SHHWGYGK_01.csv DRIFT_TIME= 27.6187 26.8908 91.383 96.6473 
PEPMASS=486.23
CHARGE=2+
140.1156 372
148.0921 372
357.154 367
357.1618 337
END IONS
BEGIN IONS
TITLE=Spectrum 25SHHWGYGK_01.csv DRIFT_TIME= 26.2219 
PEPMASS=486.23
CHARGE=2+
133.1115 335
END IONS
BEGIN IONS
TITLE=Spectrum 26SHHWGYGK_01.csv DRIFT_TIME= 23.338 23.3904 
PEPMASS=486.23
CHARGE=2+
95.057 332
161.0745 328
END IONS
BEGIN IONS
TITLE=Spectrum 27SHHWGYGK_01.csv DRIFT_TIME= 23.541 24.1389 
PEPMASS=486.23
CHARGE=2+
53.0435 320
117.0783 317
END IONS
BEGIN IONS
TITLE=Spectrum 28SHHWGYGK_01.csv DRIFT_TIME= 23.6574 111.8512 
PEPMASS=486.23
CHARGE=2+
83.055 313
375.6335 306
END IONS
BEGIN IONS
TITLE=Spectrum 29SHHWGYGK_01.csv DRIFT_TIME= 81.0738 
PEPMASS=486.23
CHARGE=2+
323.1585 300
END IONS
BEGIN IONS
TITLE=Spectrum 30SHHWGYGK_01.csv DRIFT_TIME= 34.5813 
PEPMASS=486.23
CHARGE=2+
172.1247 297
END IONS
BEGIN IONS
TITLE=Spectrum 31SHHWGYGK_01.csv DRIFT_TIME= 28.5768 105.0369 
PEPMASS=486.23
CHARGE=2+
67.975 286
399.2172 283
END IONS
BEGIN IONS
TITLE=Spectrum 32SHHWGYGK_01.csv DRIFT_TIME= 67.7501 
PEPMASS=486.23
CHARGE=2+
252.1613 277
END IONS
BEGIN IONS
TITLE=Spectrum 33SHHWGYGK_01.csv DRIFT_TIME= 24.2536 
PEPMASS=486.23
CHARGE=2+
227.1144 270
END IONS
BEGIN IONS
TITLE=Spectrum 34SHHWGYGK_01.csv DRIFT_TIME= 30.2899 56.8127 
PEPMASS=486.23
CHARGE=2+
157.1108 267
277.1128 267
END IONS
BEGIN IONS
TITLE=Spectrum 35SHHWGYGK_01.csv DRIFT_TIME= 25.6661 72.5118 
PEPMASS=486.23
CHARGE=2+
142.0904 266
270.2032 266
END IONS
BEGIN IONS
TITLE=Spectrum 36SHHWGYGK_01.csv DRIFT_TIME= 23.2264 109.2418 
PEPMASS=486.23
CHARGE=2+
139.0593 264
375.4575 261
END IONS
BEGIN IONS
TITLE=Spectrum 37SHHWGYGK_01.csv DRIFT_TIME= 29.6479 
PEPMASS=486.23
CHARGE=2+
168.1029 259
END IONS
BEGIN IONS
TITLE=Spectrum 38SHHWGYGK_01.csv DRIFT_TIME= 23.7564 49.4948 139.4105 
PEPMASS=486.23
CHARGE=2+
54.0153 258
233.0872 256
490.3742 248
END IONS
BEGIN IONS
TITLE=Spectrum 39SHHWGYGK_01.csv DRIFT_TIME= 24.2817 59.0204 
PEPMASS=486.23
CHARGE=2+
129.0786 240
241.1951 240
END IONS
BEGIN IONS
TITLE=Spectrum 40SHHWGYGK_01.csv DRIFT_TIME= 25.2626 23.3203 
PEPMASS=486.23
CHARGE=2+
115.1018 236
117.0435 232
END IONS
BEGIN IONS
TITLE=Spectrum 41SHHWGYGK_01.csv DRIFT_TIME= 23.1426 23.8623 24.7279 73.0212 111.0744 
PEPMASS=486.23
CHARGE=2+
69.0406 228
115.0614 227
132.0618 225
313.1182 220
375.7129 213
END IONS
BEGIN IONS
TITLE=Spectrum 42SHHWGYGK_01.csv DRIFT_TIME= 54.6496 67.3701 
PEPMASS=486.23
CHARGE=2+
257.0804 208
259.2055 207
END IONS
BEGIN IONS
TITLE=Spectrum 43SHHWGYGK_01.csv DRIFT_TIME= 52.5556 
PEPMASS=486.23
CHARGE=2+
229.0523 206
END IONS
BEGIN IONS
TITLE=Spectrum 44SHHWGYGK_01.csv DRIFT_TIME= 28.2376 
PEPMASS=486.23
CHARGE=2+
146.1152 205
END IONS
BEGIN IONS
TITLE=Spectrum 45SHHWGYGK_01.csv DRIFT_TIME= 25.0546 46.6129 60.4434 94.0045 95.6229 
PEPMASS=486.23
CHARGE=2+
118.1318 201
185.0273 201
269.0894 200
368.1647 198
415.1544 192
END IONS
BEGIN IONS
TITLE=Spectrum 46SHHWGYGK_01.csv DRIFT_TIME= 70.391 92.5461 
PEPMASS=486.23
CHARGE=2+
269.1957 187
395.1878 180
END IONS
BEGIN IONS
TITLE=Spectrum 47SHHWGYGK_01.csv DRIFT_TIME= 109.8185 
PEPMASS=486.23
CHARGE=2+
376.5972 178
END IONS
BEGIN IONS
TITLE=Spectrum 48SHHWGYGK_01.csv DRIFT_TIME= 23.5521 25.669 80.7186 
PEPMASS=486.23
CHARGE=2+
113.0654 177
143.097 174
345.1812 173
END IONS
BEGIN IONS
TITLE=Spectrum 49SHHWGYGK_01.csv DRIFT_TIME= 66.5065 
PEPMASS=486.23
CHARGE=2+
321.1458 172
END IONS
BEGIN IONS
TITLE=Spectrum 50SHHWGYGK_01.csv DRIFT_TIME= 23.87 46.028 
PEPMASS=486.23
CHARGE=2+
68.0201 171
206.1492 171
END IONS
BEGIN IONS
TITLE=Spectrum 51SHHWGYGK_01.csv DRIFT_TIME= 24.9159 91.5519 
PEPMASS=486.23
CHARGE=2+
124.085 170
373.2049 170
END IONS
BEGIN IONS
TITLE=Spectrum 52SHHWGYGK_01.csv DRIFT_TIME= 64.1365 
PEPMASS=486.23
CHARGE=2+
252.1848 168
END IONS
BEGIN IONS
TITLE=Spectrum 53SHHWGYGK_01.csv DRIFT_TIME= 23.587 41.2777 74.4998 
PEPMASS=486.23
CHARGE=2+
74.1024 163
189.053 163
297.1189 161
END IONS
BEGIN IONS
TITLE=Spectrum 54SHHWGYGK_01.csv DRIFT_TIME= 33.4017 
PEPMASS=486.23
CHARGE=2+
186.0666 160
END IONS
BEGIN IONS
TITLE=Spectrum 55SHHWGYGK_01.csv DRIFT_TIME= 24.9635 
PEPMASS=486.23
CHARGE=2+
113.1256 155
END IONS
BEGIN IONS
TITLE=Spectrum 56SHHWGYGK_01.csv DRIFT_TIME= 23.8092 104.6146 
PEPMASS=486.23
CHARGE=2+
98.1068 154
411.2235 152
END IONS
BEGIN IONS
TITLE=Spectrum 57SHHWGYGK_01.csv DRIFT_TIME= 24.3855 35.1484 112.1891 
PEPMASS=486.23
CHARGE=2+
107.0818 150
187.1122 150
397.1838 150
END IONS
BEGIN IONS
TITLE=Spectrum 58SHHWGYGK_01.csv DRIFT_TIME= 56.9051 
PEPMASS=486.23
CHARGE=2+
235.1604 149
END IONS
BEGIN IONS
TITLE=Spectrum 59SHHWGYGK_01.csv DRIFT_TIME= 23.5414 108.8987 
PEPMASS=486.23
CHARGE=2+
106.081 148
376.4154 147
END IONS
BEGIN IONS
TITLE=Spectrum 60SHHWGYGK_01.csv DRIFT_TIME= 71.4188 110.9654 
PEPMASS=486.23
CHARGE=2+
284.1849 144
375.9893 144
END IONS
BEGIN IONS
TITLE=Spectrum 61SHHWGYGK_01.csv DRIFT_TIME= 111.1124 
PEPMASS=486.23
CHARGE=2+
375.578 143
END IONS
BEGIN IONS
TITLE=Spectrum 62SHHWGYGK_01.csv DRIFT_TIME= 28.5843 
PEPMASS=486.23
CHARGE=2+
158.0836 141
END IONS
BEGIN IONS
TITLE=Spectrum 63SHHWGYGK_01.csv DRIFT_TIME= 25.3936 114.2105 112.3624 
PEPMASS=486.23
CHARGE=2+
141.077 138
374.9527 137
377.9488 137
END IONS
BEGIN IONS
TITLE=Spectrum 64SHHWGYGK_01.csv DRIFT_TIME= 81.0501 
PEPMASS=486.23
CHARGE=2+
357.1058 136
END IONS
BEGIN IONS
TITLE=Spectrum 65SHHWGYGK_01.csv DRIFT_TIME= 82.2652 114.3867 
PEPMASS=486.23
CHARGE=2+
331.1368 135
377.3747 135
END IONS
BEGIN IONS
TITLE=Spectrum 66SHHWGYGK_01.csv DRIFT_TIME= 23.5046 115.8002 
PEPMASS=486.23
CHARGE=2+
86.0658 132
376.3553 131
END IONS
BEGIN IONS
TITLE=Spectrum 67SHHWGYGK_01.csv DRIFT_TIME= 35.0898 50.1709 62.536 
PEPMASS=486.23
CHARGE=2+
131.0118 130
243.0769 130
271.1017 125
END IONS
BEGIN IONS
TITLE=Spectrum 68SHHWGYGK_01.csv DRIFT_TIME= 23.3343 
PEPMASS=486.23
CHARGE=2+
205.6005 120
END IONS
BEGIN IONS
TITLE=Spectrum 69SHHWGYGK_01.csv DRIFT_TIME= 38.1703 98.4483 114.3408 
PEPMASS=486.23
CHARGE=2+
186.1379 119
373.1537 119
376.9954 119
END IONS
BEGIN IONS
TITLE=Spectrum 70SHHWGYGK_01.csv DRIFT_TIME= 31.8406 
PEPMASS=486.23
CHARGE=2+
278.1061 117
END IONS
BEGIN IONS
TITLE=Spectrum 71SHHWGYGK_01.csv DRIFT_TIME= 27.7153 105.1637 
PEPMASS=486.23
CHARGE=2+
56.9705 116
376.9965 116
END IONS
BEGIN IONS
TITLE=Spectrum 72SHHWGYGK_01.csv DRIFT_TIME= 51.9636 106.4432 
PEPMASS=486.23
CHARGE=2+
247.0627 114
377.7973 110
END IONS
BEGIN IONS
TITLE=Spectrum 73SHHWGYGK_01.csv DRIFT_TIME= 105.4936 
PEPMASS=486.23
CHARGE=2+
376.4346 109
END IONS
BEGIN IONS
TITLE=Spectrum 74SHHWGYGK_01.csv DRIFT_TIME= 115.6991 
PEPMASS=486.23
CHARGE=2+
376.0208 108
END IONS
BEGIN IONS
TITLE=Spectrum 75SHHWGYGK_01.csv DRIFT_TIME= 53.9967 
PEPMASS=486.23
CHARGE=2+
242.0954 105
END IONS
BEGIN IONS
TITLE=Spectrum 1VGDANPALQK.csv DRIFT_TIME=16.2986 16.2867 16.1969 16.221 16.2803 16.2266 16.479 18.083 16.221 16.2856 18.5381 16.4646 18.5629 17.9249 16.4688 18.5619 18.2201 18.405 16.2325 16.5298 16.6527 16.3645 16.3223 16.381 16.4124 16.4313 16.5157 19.5234 16.6696 19.2908 16.6162 19.2565 16.3084 16.637 17.1668 16.4673 18.5374 18.9343 18.659 19.2645 16.9434 20.7842 16.9061 16.4999 16.6785 16.9171 16.5821 19.5313 16.9119 18.6965 20.2154 17.028 19.3177 16.9681 18.4368 17.0777 20.3211 16.8214 19.8753 17.5466 17.2405 19.333 17.7354 20.5123 17.6479 20.2422 19.4796 17.2441 21.0048 22.0163 19.1314 17.5347 18.489 17.1963 18.2018 17.8747 20.9355 17.9324 20.5482 17.0726 21.489 19.1494 18.0512 18.3763 18.5727 18.4169 20.2837 20.0714 21.9398 20.2279 22.0534 19.9199 19.1543 18.3821 19.1408 20.9872 20.3697 20.5019 21.6813 21.1917 21.7605 21.6276 18.6791 21.1693 18.9852 21.5256 19.1304 24.1784 20.1775 23.375 21.6531 20.1618 21.4228 22.7532 22.6275 21.9849 21.3043 20.6672 26.0803 20.9016 22.0763 25.6996 22.0721 21.2097 22.1249 21.9196 25.331 22.1032 23.2282 23.539 23.4486 24.0864 23.0685 22.8728 27.9797 22.1795 28.1939 22.8404 26.7431 23.8183 20.8259 23.947 22.6427 28.598 16.155 27.6233 22.6314 24.0606 24.3947 25.9649 26.1811 24.1859 24.6355 28.6341 25.8753 29.7593 27.8757 27.8418 22.3193 30.1731 22.5436 25.6181 27.5011 29.3956 29.1725 28.4741 29.2788 27.8686 25.8041 25.5373 25.4657 25.6644 25.5688 27.9096 25.0708 27.2492 39.2064 26.0763 28.7159 30.3439 28.9894 25.2087 28.6244 34.4549 29.8216 29.6049 17.8939 21.7961 31.013802 34.0873 23.4898 28.2921 27.9922 30.0116 27.2274 29.9894 27.0956 30.1319 29.1615 29.3694 26.3896 29.6512 16.3806 29.1018 33.5226 30.4015 26.0468 31.9566 30.9447 31.6408 31.8316 16.8748 33.778 31.5727 30.056 31.324402 30.1796 30.5142 16.6217 18.4707 18.5684 23.5811 32.0026 32.0561 30.3495 41.3313 27.6939 33.1179 41.6055 19.5985 24.2315 33.5957 31.9301 34.9885 29.2991 27.7201 16.6675 30.3154 31.9096 30.7503 33.6124 30.4632 31.9346 30.6849 30.5415 32.7857 30.7273 35.4874 21.205 35.4332 17.0098 21.1145 17.002 31.8469 36.6766 17.0406 32.2448 39.2317 16.8804 41.8736 33.9416 34.7044 16.714 24.5879 34.9947 28.9413 34.7116 34.131 42.8434 35.1181 36.4193 29.3949 25.3571 27.8019 28.9892 31.135002 32.1818 31.0009 17.216 31.3623 17.2313 32.6752 23.5734 33.5942 30.9164 30.8814 39.9195 31.075699 36.1214 29.8852 31.1507 38.9319 26.0956 36.039 37.3482 37.4875 17.3357 17.4748 17.3955 25.4429 34.6909 25.6584 16.9389 35.0379 28.8705 35.0592 46.1057 27.9333 29.0003 28.9605 49.7819 37.1093 22.0601 37.8571 48.3903 22.0133 28.7967 28.9497 21.8577 37.9983 17.6769 33.045 18.2273 39.3564 43.5477 18.2559 18.2452 37.9867 17.9853 45.1424 22.0954 31.756798 30.9846 37.4056 23.7399 23.8601 23.5626 17.7426 23.4517 37.8833 23.3662 17.5078 22.1925 39.2745 39.5343 31.739899 39.3563 42.859 43.8081 29.1069 39.9142 35.0044 45.964 28.3525 40.6548 28.8951 35.2884 39.8358 50.2686 37.0836 24.0938 41.8106 49.7034 26.5071 29.4114 42.7469 26.3296 26.7618 34.6463 44.1569 17.8198 35.1269 17.7676 17.8627 35.207 17.8998 17.985 35.1606 45.7033 17.6466 35.2975 35.5677 36.4299 31.312 24.4386 32.066 20.2841 37.9804 50.1086 19.2553 17.9436 44.6771 40.0013 44.128 32.4911 32.8148 29.4085 40.6982 33.1201 41.7666 29.7877 40.6566 44.4854 45.6586 26.4502 34.1406 46.9047 26.2919 18.5599 36.1853 45.1531 26.3052 26.049 18.8124 36.1826 50.5451 44.7905 25.5262 18.8313 36.0364 20.1039 17.2801 19.5983 19.928 47.8318 26.7682 32.7642 46.8916 33.3294 45.1123 25.841 34.1941 47.6367 27.2257 50.3089 26.7556 33.3144 31.8107 31.7308 34.1688 20.239 31.128502 19.9875 33.3299 27.5949 50.1139 27.1462 26.7489 49.8936 26.0143 34.05 25.8894 27.7485 50.5977 27.6363 27.6242 36.7947 43.2922 51.2768 43.1447 49.2601 34.6903 23.2459 43.0626 26.7608 49.9497 53.7601 27.4299 22.7463 43.4869 27.1592 52.6435 27.6304 43.1704 43.0431 42.0706 28.1445 33.5743 48.6813 28.1222 27.1134 33.2755 26.0614 34.0253 54.0265 60.501 54.0886 35.4125 54.913 28.47 27.3927 52.0309 28.96 34.3586 29.1459 56.4167 28.3997 53.7242 28.2911 20.0692 28.7037 49.0635 48.4015 53.6623 52.8199 47.92 28.1533 43.2287 27.1443 56.2062 28.6997 35.1823 43.3631 28.6699 28.6583 43.3037 29.1746 30.4653 35.059 29.223 36.0563 42.4617 33.6415 50.0061 31.4697 30.9649 27.9013 50.2342 49.1454 30.1095 30.0556 29.9964 18.9872 28.7696 58.8197 31.670998 57.2928 31.5779 56.1383 30.2186 29.8271 51.8946 30.2805 30.2021 52.3394 60.1637 39.0298 46.8497 36.7426 28.9575 35.5204 46.7647 32.9145 33.1053 32.934 31.858398 35.8748 31.122498 61.0544 30.8442 51.8323 31.1988 59.5417 30.9187 53.4087 33.0929 63.1008 34.2525 63.563797 30.846 28.8101 54.3628 29.3719 32.7461 38.597 24.1761 50.351 29.121 29.883 24.1599 60.2161 42.4335 55.9439 33.3248 42.8527 33.2611 33.2541 42.7359 30.1412 32.826 36.6059 32.2041 32.6549 39.4505 32.5854 32.6297 39.4473 59.1029 29.8752 29.7909 39.1483 29.4248 58.6397 52.4868 30.3293 32.3146 54.6393 31.582802 31.754898 31.131401 55.1654 55.4055 33.2532 33.1424 64.455 34.4484 53.6943 57.6762 34.7851 34.5105 33.8418 33.3308 40.4305 42.7854 31.034302 33.3962 42.3073 33.0485 32.0456 43.0057 31.757797 58.615 62.0667 25.0778 24.8785 24.7014 34.7001 40.0798 24.4874 58.2316 34.9737 24.2331 34.6683 57.413 62.7398 55.2813 33.8839 34.4695 58.7054 34.0071 32.963 32.8855 59.6233 59.4431 69.9793 33.1684 70.7704 34.188 52.5482 34.0354 60.6708 34.0971 52.447 52.3149 61.2258 64.2128 33.5583 33.5655 33.346 65.3988 66.1954 39.3737 35.0385 61.984 34.804 34.0773 62.1654 34.3552 34.0684 64.2626 45.2293 45.4505 45.4325 56.9856 61.4681 62.2775 62.7463 36.5131 63.6024 36.0768 35.7519 35.0435 34.8567 35.0231 36.6633 63.257797 63.6063 36.7763 62.7854 38.6653 39.1643 33.9134 38.3108 64.7858 38.3605 38.3581 36.6219 36.7205 36.4807 37.1205 38.8482 38.9154 38.679 70.3338 38.2453 46.077 37.026 70.8174 35.8552 46.3061 36.7898 46.1271 60.8707 71.4088 38.1579 38.2295 64.2305 38.3574 38.5985 38.254 38.6395 67.3673 37.5996 37.5993 36.8771 37.7655 68.7084 38.8552 101.3594 38.9666 40.8016 71.6625 77.3538 100.6417 40.9379 40.7635 79.3497 40.3613 50.4504 65.3679 39.0838 38.9992 50.4218 65.3181 38.7033 69.1609 38.8548 50.1114 67.1826 75.5154 37.2314 77.4458 76.8194 74.7241 72.2144 73.245 78.5924 71.424 67.6819 66.8712 68.9138 71.3208 74.0145 73.9015 82.2091 82.1346 83.6413 72.766 75.9993 53.431 76.3405 76.1114 74.842 75.1258 87.4458 79.0387 88.2068 87.5029 88.1399 78.2018 81.3489 87.1578 87.4283 81.1443 81.8083 80.0809 79.7834 76.6469 81.1567 97.263 68.0224 84.1182 92.3173 85.9765 83.4005 51.6993 83.9663 86.4972 82.7713 90.9918 90.9015 88.7556 87.9104 87.9302 89.1856 88.2968 88.775 84.8261 90.7457 91.0002 90.2 93.8077 92.8446 94.1092 92.828 98.9547 99.945 93.8908 102.2717 96.2783 103.4268 100.9891 102.9628 101.7432 101.8418 100.3517 101.5191 102.434 102.9461 98.076 102.5607 102.2309 114.0567 109.2883 109.3313 108.2933 109.8643 113.7512 114.6036 114.4684 112.8823 122.1143 119.5144 125.811 117.0686 110.7349 115.6613 116.3564 111.3191 110.212 109.8335 114.3389 121.1378 113.7076 117.6604 110.0323 118.7225 114.6467 115.6978 120.4143 119.6838 129.9886 124.6643 110.1647 121.3597 124.8847 117.3477 119.5523 131.742 130.4699 135.1651 136.0279 137.9276 145.2647 135.9228 143.1108 145.7995 142.1787 139.0762 148.0584 150.794 149.7934 
PEPMASS=506.7775
CHARGE=2+
101.0939 493
101.1296 352
102.0773 188
104.0934 1318
110.0937 12226
111.0983 1083
112.1076 231
113.0169 171
113.0961 207
114.0801 346
114.9775 5680
115.1119 188
115.9815 429
116.0276 195
116.0956 193
116.9747 805
117.0124 964
118.9726 345
119.0765 529
120.1068 3616
121.1113 384
122.1075 3357
123.1097 197
124.0652 193
124.1042 391
127.0779 586
127.1152 161
128.9958 649
129.1299 5014
129.9913 731
130.1142 4459
130.9926 159
131.0992 331
131.1186 432
131.1453 355
132.1104 236
132.9926 2418
133.9961 179
134.9881 375
135.9943 242
136.1053 3383
136.9616 730
137.1092 348
139.1196 170
141.0971 472
141.1326 1702
144.1127 376
144.9952 1039
145.0938 486
145.9935 153
147.0064 207
147.144 2121
148.0051 258
148.1483 207
151.0075 287
154.1568 256
154.976 798
156.1137 244
157.0413 255
157.1301 1244
158.1275 717
159.0135 427
159.1242 1560
160.0619 359
160.1265 226
162.0226 231
163.0106 523
163.1331 329
164.0384 166
166.9054 246
168.0327 203
169.0935 259
169.133 2808
170.0963 258
170.1375 404
171.1199 243
172.0121 988
172.1128 485
172.9883 281
173.0931 734
174.9928 258
175.123 1079
175.1568 1885
176.1231 170
179.132 586
181.1354 709
182.0517 151
183.1895 1873
184.0154 152
184.1903 214
185.2055 169
186.1249 416
186.1657 920
187.111 563
187.1486 469
190.0265 555
190.1272 855
191.1294 219
193.0077 11408
193.1398 208
194.0119 2421
195.0049 4194
195.1189 1621
196.0079 323
196.1183 224
197.0023 1051
197.1416 217
198.0339 580
198.1292 337
200.1827 415
202.0292 1249
202.1519 223
204.0441 1521
204.1779 3894
205.1818 446
206.0089 186
207.131 288
209.1365 1170
210.1242 168
210.1387 133
211.0222 8165
211.19 237
212.026 1587
212.1495 452
213.0196 3003
214.0215 235
214.2034 168
215.0174 732
216.0467 678
216.1477 240
217.1425 442
218.1306 339
219.0059 377
220.0375 266
220.951 320
221.1433 730
221.9466 316
223.1631 133
223.9372 215
224.1554 211
225.1018 196
225.1468 313
225.954 290
226.1242 253
227.9788 158
228.1409 164
229.0374 393
232.0252 330
234.1509 191
235.1572 4904
236.1605 884
237.0191 118
238.1342 162
238.9702 157
239.1646 917
239.2022 407
240.1856 670
241.1864 142
241.9524 649
242.2032 154
243.9665 208
244.1455 540
245.1454 247
245.9506 2052
246.9501 124
247.1814 445
247.9474 572
248.1845 142
249.1519 1500
250.0413 5188
250.1549 185
251.0447 651
252.0395 851
252.1782 189
254.038 277
254.1692 225
254.2434 157
255.0644 238
256.143 345
257.2161 2609
257.9921 369
258.0365 578
258.0689 242
258.147 156
258.2011 3907
259.2045 593
259.6653 117
259.9632 184
259.9699 268
260.2548 187
261.9214 558
262.0501 289
263.0394 380
263.9658 3162
264.0618 496
264.9702 179
265.1926 185
265.9631 942
266.1741 661
267.1654 2245
268.0574 610
268.1723 395
269.0175 417
269.1839 249
269.9879 148
270.0325 163
270.0549 142
270.1628 128
272.0181 250
272.1822 3336
273.1857 660
273.9578 194
275.1791 497
275.2316 3003
275.9679 3130
276.236 436
276.976 519
277.9721 1181
278.5561 396
278.7314 592
279.2337 174
279.9337 621
280.0157 235
281.1621 233
281.9793 1743
282.2413 896
282.9842 169
283.2019 1508
283.2451 144
283.7234 160
283.973 2327
284.2022 447
284.9617 127
285.9826 233
286.8605 353
288.0073 508
288.0974 139
289.0614 2587
289.9858 1789
290.06 455
290.2071 115
291.0594 405
291.983 487
293.9826 3103
294.9938 529
295.1702 396
295.9819 958
296.2137 1338
297.2128 592
297.2184 499
297.5329 973
297.7189 205
298.0335 231
298.0367 164
298.202 286
298.527 240
299.0372 308
299.2736 745
299.5153 282
300.2175 175
300.9944 4971
301.1804 753
301.5129 143
301.9868 1023
301.9963 245
302.0287 161
302.1874 110
302.9929 476
303.2141 174
303.9968 162
304.2323 115
304.8756 623
305.2218 119
306.0171 587
306.8737 207
307.0728 13957
308.0013 1443
308.0798 1808
308.5173 398
309.075 1431
309.5165 119
309.9999 458
310.2002 131
310.9548 130
311.0742 202
312.0032 511
312.2208 338
312.9138 178
313.1823 475
313.9031 307
313.9934 175
314.2063 122
314.2257 174
315.0207 121
315.2343 1020
316.2418 178
316.5089 483
317.5206 364
318.509 198
318.736 547
319.0108 3697
319.2378 137
319.9368 148
320.0119 292
320.9487 1474
321.0111 334
321.28 244
321.9374 919
322.8855 484
322.9434 561
323.2957 1749
323.9855 332
324.2046 393
324.214 1581
324.2968 304
324.7065 212
324.8923 192
324.951 132
325.2113 119
325.2234 320
325.5159 196
326.021 260
326.0481 1006
326.2128 249
326.2667 192
326.5481 235
327.049 292
327.2007 242
328.0484 144
328.2634 224
329.6958 163
330.9184 156
331.9143 349
333.029 134
333.2134 1439
333.7217 975
334.2215 1112
334.5192 162
334.7255 401
335.0201 297
335.2221 173
336.0192 145
336.2082 148
336.9796 2211
337.2216 217
337.9076 1384
337.9805 178
338.1857 229
338.2513 374
338.9644 2583
338.9815 709
339.0515 136
339.2795 130
339.9541 968
340.2021 345
340.9601 1103
341.057 171
341.2136 379
341.3126 1026
341.9973 653
342.2223 133
342.2298 155
342.3157 187
342.7329 843
342.9686 219
343.2334 507
343.2392 341
343.7382 125
343.9832 231
344.2293 328
345.026 3442
345.0286 29538
345.5273 979
346.0258 1052
346.0359 3878
346.5282 327
347.0232 530
347.0279 3821
347.304 340
347.5272 142
348.0313 156
349.0257 292
349.101 148
349.9287 144
351.7148 160
351.9254 232
352.4978 129
353.0337 159
353.2965 373
353.495 161
354.0363 557
354.2541 256
354.9951 450
355.2096 151
355.9214 3846
356.922 161
356.9837 268
356.9965 113
357.9298 240
358.2133 947
358.9775 135
359.2079 145
360.2467 185
361.2604 935
361.7238 119
361.9903 192
362.245 211
362.7344 940
363.0203 393
363.0448 4876
363.2338 359
363.24 485
363.7405 136
364.0181 296
364.0487 524
364.1953 116
364.241 142
364.7281 116
365.0134 158
365.0429 519
365.5077 582
365.9047 141
366.0172 161
366.5068 174
367.2775 1704
367.7334 170
367.9234 1814
368.2783 468
368.925 160
369.2278 395
369.8945 182
369.9385 669
370.2513 176
370.2536 207
371.3163 179
373.7359 159
373.9359 3710
374.2593 950
374.7617 400
374.9475 157
375.0453 541
375.2617 136
375.5483 141
375.9387 194
376.2481 132
376.2538 1779
376.7372 670
377.2366 336
377.2604 378
377.7405 1675
377.9826 251
378.2342 1139
378.7793 5475
379.2769 367
379.2791 2747
379.781 704
379.9606 182
380.0678 815
380.2775 194
381.0148 6453
381.2476 657
381.9443 1332
382.0091 239
382.0191 785
382.2473 151
382.252 219
382.325 517
382.7435 307
383.0082 241
383.0121 2519
383.2358 231
383.3256 148
383.7411 128
384.2364 278
385.0075 137
385.099 125
385.7439 1301
385.9385 3474
386.2454 402
386.2475 619
386.7459 286
386.9341 199
387.2269 177
387.9498 696
388.3386 4011
389.2663 186
389.3439 1007
389.9867 140
390.3464 127
390.7549 311
391.2508 1090
391.259 166
391.7495 1636
391.9475 154
392.2512 798
392.3108 124
392.7517 675
393.2226 132
393.2534 299
393.5294 150
393.7577 183
394.2527 289
395.2457 180
396.311 581
397.3051 236
398.2551 315
398.7573 664
399.0288 4773
399.2496 648
399.3162 109
399.7579 1465
399.9576 1895
400.0355 511
400.2585 2240
400.7578 989
401.0305 1864
401.2638 343
401.7617 155
401.9621 115
402.2599 113
402.9215 207
403.024 145
403.9537 1304
404.2537 3453
404.2841 297
404.7808 147
405.2367 116
405.2582 777
406.2647 125
407.762 4294
408.265 1783
408.7676 659
408.9955 428
409.2491 178
409.2535 201
410.2844 256
410.3275 1996
410.7843 134
411.3289 629
411.7668 162
412.2601 191
412.2752 792
412.7645 247
413.2731 188
413.2757 200
413.3453 117
415.9383 374
417.0006 514
417.2952 138
417.7463 192
417.9726 636
418.9986 355
419.2902 1063
419.7926 582
420.296 254
420.7742 1349
420.9315 115
421.2723 919
421.3149 618
421.7757 1175
422.2572 131
422.2737 618
422.3204 167
422.7724 302
423.2567 139
423.2752 169
424.3094 2839
425.2808 186
425.3138 645
425.76 150
426.2593 1238
426.296 239
426.7594 991
426.9279 112
426.9778 263
426.9926 257
427.0683 108
427.2584 415
427.7578 162
427.99 211
428.3394 611
428.935 3747
429.3005 298
429.7803 4040
429.9454 255
430.2808 1710
430.7803 539
430.9342 343
431.2573 174
431.7835 124
431.9196 109
433.2904 745
433.7945 552
433.9511 1294
434.281 498
434.776 395
434.9596 127
435.248 252
435.2672 880
435.7673 538
435.9435 149
436.2621 199
436.2843 133
438.2577 454
438.7696 148
438.7954 143
439.2716 180
439.2798 322
439.7705 264
440.2603 165
440.2742 913
441.2777 419
441.8058 229
442.2977 4653
442.3636 202
442.7991 4664
443.0207 353
443.2824 150
443.3025 2203
443.8037 710
444.2958 336
444.7881 135
444.9915 490
446.9517 1875
447.2739 417
447.8027 1168
447.956 139
448.2952 1695
448.7779 829
448.9433 127
449.2789 321
450.2639 230
450.3307 257
450.5644 251
451.0683 154
451.564 319
451.7981 2095
451.9684 122
452.0619 152
452.2775 196
452.3014 1066
452.5589 229
452.8045 334
453.2686 411
454.3277 229
455.2848 443
456.2813 2870
456.8053 3106
457.3013 925
457.3035 1788
457.7897 834
458.2847 380
458.303 659
459.2978 123
459.3936 1331
460.2932 115
460.3967 407
460.7818 203
461.122 578
461.2839 206
461.3002 273
461.7845 172
462.1256 117
463.114 123
464.2861 137
465.281 118
465.2869 3671
465.7916 1732
466.2916 556
467.3599 317
468.3509 187
468.8058 142
469.2938 946
469.3026 682
469.788 974
470.2904 820
470.3002 357
470.7956 413
471.2893 210
471.3217 157
472.97 3716
473.972 360
474.976 305
475.1408 186
475.1603 275
475.3277 1531
476.3218 496
477.319 124
477.3239 119
478.2998 3542
478.7992 2044
479.3002 1284
479.8004 623
480.3042 327
480.7991 123
481.3071 227
482.3012 166
482.3415 261
483.2888 265
483.3224 345
483.8243 177
484.2641 240
484.3429 124
486.3001 121
486.3264 408
486.8313 288
487.3061 4527
487.8094 2346
488.3205 882
488.8402 898
489.3272 1251
489.8272 754
490.3274 278
490.3645 305
490.8297 127
490.983 9751
491.3137 472
491.3719 125
491.8075 479
491.987 1050
492.3132 269
492.9842 940
494.3034 138
496.3682 185
497.3503 5590
497.8491 5367
498.3432 187
498.3457 3101
498.8462 1121
499.3502 643
499.8497 236
500.3019 176
500.3185 2055
500.818 1367
501.3166 459
501.8279 238
503.3874 101
506.3572 7134
506.586 785
506.8612 5037
507.3399 6043
507.3649 172
507.4393 622
507.5864 333
507.8397 3556
508.3447 1335
508.4475 231
508.8536 365
508.9576 1369
509.3113 1032
509.3266 4043
509.8263 2137
509.9603 166
510.3079 287
510.3295 771
510.3464 238
510.8289 215
510.9532 542
511.3468 195
511.4547 181
511.831 146
516.353 373
517.3399 131
518.331 483
519.3209 136
524.3938 221
524.4021 246
525.3856 244
526.3413 1538
527.344 559
529.3482 312
535.3013 201
537.355 165
538.3496 112
538.4558 288
539.4401 717
540.4346 219
544.3452 452
546.3775 7209
546.9153 128
547.3803 2597
548.3753 440
553.3149 188
554.3865 227
556.4603 9572
557.3458 143
557.4679 3784
558.4736 819
559.4762 162
562.3742 314
565.3829 243
567.4086 756
568.3981 353
582.413 446
583.4161 221
590.373 898
591.3804 402
592.3443 127
592.3957 164
593.4303 380
594.0718 141
594.4197 192
594.4325 257
595.4289 137
597.4056 118
600.914 131
601.3843 264
606.3543 126
608.3957 234
610.4297 2124
611.4382 1013
612.4375 291
619.4029 255
620.4067 135
621.4409 154
622.4142 662
623.4188 249
625.433 336
629.3913 218
639.4497 1416
640.4486 526
641.4562 138
642.4624 212
647.4077 1609
648.4098 584
648.4116 505
653.5003 426
654.4526 221
654.4624 172
656.4728 142
659.4895 2608
660.4872 1057
661.4877 300
665.4239 262
670.5319 2405
671.3979 297
671.5356 968
672.4052 134
672.5332 311
681.4532 156
681.5098 181
684.4701 302
722.4575 518
734.4658 398
735.4527 144
738.5059 199
739.5213 309
740.5028 139
741.5822 1703
742.5909 743
743.58 290
747.5158 1434
748.5173 648
748.5177 571
749.5103 209
750.5005 220
751.4921 330
752.4912 259
756.5589 3500
757.5626 1526
758.564 453
764.4799 281
764.4812 303
765.4879 172
767.5251 394
767.5336 332
768.5493 195
769.5129 162
770.4976 193
781.5134 485
782.506 663
782.5128 353
783.5018 289
784.5013 178
784.5034 215
799.5185 414
799.5237 658
800.5173 279
802.5999 143
810.5022 268
856.638 1474
857.6427 731
883.5881 367
883.6127 314
884.6001 283
884.6135 263
895.6366 305
896.6442 529
912.6253 259
913.6617 4245
914.6699 2470
915.6762 802
END IONS
BEGIN IONS
TITLE=Spectrum 1VLDALDSIK.csv DRIFT_TIME=17.6202 16.187 16.2544 17.9023 16.3019 16.4954 16.4337 17.4934 16.2947 18.237 16.3914 16.7747 16.4157 16.224 16.5184 16.8143 16.7596 16.6513 19.3668 17.983 16.5274 17.8549 16.7331 19.139 18.999 19.2102 17.0406 19.143 16.8655 16.7979 18.5998 16.8851 17.0041 19.6691 19.638 19.2428 19.2194 19.1757 17.9072 18.4124 16.7241 17.8568 17.8141 19.4521 17.2431 18.8255 17.0094 17.0905 20.3949 20.8585 21.9648 19.3311 19.6383 21.7506 19.1769 19.2935 21.0052 17.6935 19.0948 18.2754 18.164 20.5889 20.6222 17.9428 20.2403 21.33 21.6128 21.7623 18.7024 19.6478 22.3774 22.3558 21.8962 18.2583 22.3194 21.177 16.347 20.0253 23.5972 20.1394 20.0788 24.1065 19.955 20.0285 22.6255 21.9303 22.3927 21.4643 19.4138 21.3107 24.9746 21.3729 21.2094 22.1623 23.4698 19.9315 19.6225 16.2448 24.8065 19.8521 20.0028 19.7323 23.719 19.4515 22.9887 24.9498 26.1173 22.5036 24.8472 23.5649 25.9682 30.3146 25.3732 25.6799 26.3322 26.0179 26.2071 26.1756 19.7632 24.6478 24.9647 29.2937 25.5408 27.3897 22.1976 21.8879 31.1824 22.0223 22.0732 29.0627 22.78 21.8782 25.5339 30.2993 25.3643 29.831 26.2995 25.7824 32.1303 31.024399 27.5978 27.8972 23.832 23.6808 21.1264 34.0002 23.7573 21.731 34.3267 23.732 23.7087 23.4162 21.4802 27.3389 28.3054 31.980698 26.5129 16.5168 21.3489 33.7653 30.5426 27.509 33.691 31.586998 35.4181 16.8572 16.9996 16.5548 17.8499 24.0313 23.5949 16.6778 23.5624 23.6303 28.1196 16.7917 23.9301 23.4521 27.7158 33.2622 23.9894 29.1155 37.5859 31.459198 28.9571 32.3479 27.4554 37.2899 30.43 30.4633 33.5069 31.9823 17.1448 44.8337 23.9591 35.282 23.8427 17.0695 24.0483 17.0508 29.3255 38.2039 17.025 24.0951 40.0018 16.8224 23.8821 32.6799 39.7386 38.9718 17.2958 24.8198 41.2924 17.1153 29.0779 25.7659 27.4871 29.8418 17.0521 31.2928 17.0578 16.9015 30.9751 17.0729 28.995 31.351501 17.296 17.041 40.4767 39.8164 17.2746 17.4011 39.9612 17.2951 17.4775 37.6967 17.2791 42.5664 41.8526 29.0491 17.2227 37.0703 27.3991 40.022 29.096 17.4291 36.0134 18.263 37.4002 18.3572 28.7443 18.2144 18.0169 18.2713 44.7126 43.5226 17.5056 35.8524 17.729 17.5486 42.5175 29.1552 36.9565 43.9968 38.8367 28.6473 35.4972 44.4556 17.8014 35.4868 17.8969 17.7995 18.0717 29.8237 17.8415 34.319 45.0915 17.8411 45.3046 44.7092 26.5942 36.903 26.1255 26.2825 18.2285 47.99 26.2445 32.7033 48.6152 40.2903 37.6884 33.9052 50.2607 18.2579 36.2048 45.3526 19.1622 19.7084 54.1472 45.0655 54.0449 48.9657 26.5125 39.8372 49.693 26.6046 43.8746 52.3876 26.7554 26.605 32.9071 52.7943 36.9567 43.7661 25.9134 43.8828 42.7915 21.1993 57.1675 56.3315 33.2412 51.146 27.0016 51.3061 27.2385 47.0483 49.8443 26.4921 56.7363 28.4149 28.2721 31.2705 31.3032 52.0936 37.5918 51.8758 27.2004 44.9281 55.3055 59.1554 31.799599 31.742401 44.1576 31.911 25.8956 33.0313 50.059 32.981 33.0516 57.3274 32.542 49.2066 53.2321 58.4456 53.0318 55.8686 42.0834 55.7915 55.4619 29.2313 40.4527 28.9803 59.2171 58.053 58.5054 34.1934 58.1282 33.2191 58.2113 33.3283 33.4283 59.3296 33.2842 57.4013 39.485 32.4996 38.5358 61.599 62.9059 23.9547 59.8379 54.1764 59.378 34.0149 52.8107 61.3727 62.3098 35.2439 59.7975 33.3005 33.6096 24.759 24.9749 24.8644 64.2593 47.8287 32.3228 23.5797 69.1425 65.7119 61.7536 60.3303 21.8145 60.5749 23.0272 23.4905 23.3068 62.0682 61.8996 63.222 36.1312 62.122 33.4098 61.3442 67.4601 33.1116 69.7825 46.6382 66.0384 66.9242 66.6853 68.9178 70.3947 68.4572 65.8107 65.8355 65.2035 35.5616 37.098 76.4378 77.8703 80.9496 64.706 70.3651 80.464 46.1521 69.925 36.3663 71.9225 71.9373 71.6063 71.9176 68.1883 68.0391 68.1742 36.46 73.1061 77.7077 76.0238 80.6051 84.6815 80.7145 82.2474 82.8992 82.3576 82.885 89.6793 85.4917 82.3769 84.6375 87.3095 87.0658 87.5213 85.3905 82.0347 88.1093 87.5443 68.7503 88.1715 88.2978 88.7224 90.7721 92.2129 91.7982 98.3903 103.1562 103.9641 101.3879 104.9435 108.0848 109.8017 114.797 113.4056 114.3228 119.1495 122.9103 122.8143 121.0807 124.7653 129.1185 121.5879 137.0764 152.3795 153.0227 149.1791 146.24 
PEPMASS=487.2845
CHARGE=2+
102.994 213
104.0939 470
110.0952 424
112.0326 728
112.1358 209
113.0959 184
114.0818 461
115.02 1194
116.0599 529
117.0138 579
119.0751 151
120.1078 170
122.108 1023
124.0654 243
127.0779 601
127.1153 314
128.137 215
129.131 1450
129.9931 669
130.0487 294
130.1159 3013
131.034 268
131.1167 288
132.9905 3896
133.9921 345
134.9876 3957
136.1064 1206
136.9846 314
138.1222 276
141.0969 346
142.0496 220
145.0924 350
147.1457 1799
148.0063 236
149.9987 145
151.0048 1630
152.0368 313
153.0025 1735
154.1558 269
155.0017 142
155.1152 349
155.1532 392
156.1383 304
157.0406 198
157.0936 169
157.1684 790
158.1296 425
159.1121 2607
160.0642 2389
162.03 201
166.9064 10816
168.0345 152
170.0517 188
170.899 353
171.0159 144
171.1851 176
172.013 597
173.0917 236
173.1687 644
175.111 340
175.1578 1313
178.0786 1206
182.0566 138
183.1181 198
183.1543 544
183.1915 896
184.1955 127
184.9214 1695
185.0982 546
185.169 750
185.206 1632
186.0303 343
186.2115 228
187.1142 1634
188.025 146
190.0277 287
191.0109 289
195.9376 16701
196.0474 131
196.9421 572
197.9363 274
198.0346 286
199.9312 693
201.1314 261
201.1681 917
202.0293 476
202.1718 125
202.9334 230
203.1123 755
204.0465 1026
204.9338 225
205.0459 210
206.0432 200
206.0808 168
206.1424 138
207.1209 140
211.1201 143
211.2045 150
213.2101 508
213.9517 9506
214.9531 322
215.9543 159
216.0472 343
217.9484 271
220.0377 180
222.9489 139
223.937 15731
224.1549 977
224.9441 1103
225.1578 177
225.9389 408
226.1279 140
227.1881 600
227.9314 750
228.145 138
228.188 156
229.1686 2888
230.1727 400
231.9682 1809
232.0297 717
233.0289 266
234.0022 647
234.0241 271
237.1788 308
241.9521 34728
242.1011 428
242.2414 220
242.9584 4078
243.9547 1362
244.2208 291
244.9539 265
245.9478 2277
250.0439 2806
250.2049 113
251.0489 642
252.0194 1912
252.1529 178
254.0362 313
254.2072 207
255.1925 255
256.1494 301
258.8603 153
258.9731 201
259.9213 19674
259.9643 10674
260.2554 2534
260.9293 1797
260.9736 1159
261.2568 354
261.9195 21751
262.9255 1026
263.9194 1938
263.965 643
264.0655 276
265.9985 131
266.9494 216
268.0582 320
269.02 160
269.9578 522
269.9884 1221
270.0361 859
270.1682 256
270.2045 227
271.1915 158
272.2225 176
273.5262 133
273.9609 201
274.9583 136
275.2275 260
276.9915 119
277.9363 21453
278.5559 188
278.9437 2210
279.9332 22006
280.0237 313
280.5384 273
280.9404 1057
281.9348 2385
282.0431 250
282.2084 315
283.9735 919
284.0199 245
284.2567 183
284.9652 359
286.8608 1916
286.9625 110
288.0054 4352
288.222 253
288.8567 183
289.0628 198
290.09 434
292.0652 125
292.5061 162
294.2482 207
295.9536 5526
296.2312 114
296.9579 526
297.5346 1349
297.9507 6750
298.036 309
298.0415 107
298.2083 1046
298.5341 404
298.9534 291
299.2106 181
299.5219 386
299.9482 556
300.1492 753
300.222 1658
301.2188 315
301.5122 174
301.987 309
302.2211 164
304.4995 145
304.8761 2825
304.9609 146
306.0204 4914
306.8705 298
307.0739 1155
307.0789 3425
307.5769 174
308.0752 235
308.0823 478
308.5217 432
308.9284 116
309.079 408
309.5159 131
310.522 142
312.2629 314
316.2223 1285
316.5117 1035
317.0243 309
317.2188 200
317.5191 642
318.0193 172
318.1654 526
318.5124 268
321.2289 617
322.2284 113
322.8902 2206
323.0112 135
323.9843 930
324.0374 175
324.2246 131
324.8926 264
325.5184 315
325.9831 175
326.052 2760
326.0731 336
326.5536 703
326.9325 168
327.0505 933
327.5511 185
328.0495 373
328.2593 1070
329.2882 560
332.0174 265
334.0168 944
334.5286 302
336.0256 222
338.26 415
340.9085 254
341.999 1201
342.2389 297
343.1919 158
343.893 125
343.9851 281
344.2273 214
345.0293 3689
345.034 1154
345.5311 886
346.0282 955
346.5301 313
346.7628 155
347.0265 374
347.0285 133
347.3045 6872
347.5279 164
348.3109 1505
349.3134 271
351.8789 7427
352.0311 645
352.886 405
353.8784 147
354.0351 405
355.2775 213
355.8768 273
355.9257 144
359.2755 206
360.2159 215
361.9495 446
361.9845 220
362.2381 148
363.025 341
363.0493 120
363.2361 154
364.0173 149
365.5114 149
367.3206 190
368.0888 124
368.3018 250
369.2585 1060
369.8888 11658
370.0012 507
370.2658 297
370.8971 692
371.1988 449
371.3037 108
371.8969 276
373.8905 432
373.944 143
379.2737 408
379.9631 1212
380.0676 125
380.9159 780
381.0199 239
383.0188 180
383.0288 157
383.3127 269
385.3369 240
385.9463 146
387.2739 1137
387.909 5192
388.277 239
388.9138 314
389.2183 515
391.3223 147
391.9011 208
393.2933 134
393.2944 258
393.7908 209
395.2999 1281
395.8037 585
397.2552 418
397.9787 351
398.2684 145
398.929 333
399.0363 213
399.3173 250
401.3251 209
404.308 1161
404.8107 484
405.0708 105
405.3138 136
406.6903 110
408.9115 9977
409.1043 939
409.9217 1242
410.9183 282
411.3127 285
412.9085 437
413.0953 115
413.261 325
413.3375 240
414.2582 105
415.2753 3491
415.9429 193
416.2765 707
417.284 212
417.7486 252
418.0289 766
418.243 179
421.3221 149
422.2981 261
423.3112 121
423.8174 177
426.3314 103
426.9275 9840
427.317 113
427.9354 1184
428.9332 308
429.3358 131
430.9286 430
431.2751 312
433.9563 287
435.8466 125
437.8311 129
439.3261 521
440.3368 123
441.5599 131
442.3173 141
443.0284 215
444.3446 642
444.942 476
445.0856 116
445.3327 293
446.3387 113
446.8986 449
447.3647 110
447.772 540
448.2732 272
450.5703 713
451.0721 221
451.5692 272
452.3401 141
453.2942 111
453.8667 238
454.2987 132
454.3649 212
455.3576 181
456.3154 368
457.2998 588
457.6045 159
458.2996 172
460.3061 454
460.6406 343
460.9738 122
462.358 5559
463.3635 1550
464.3652 365
464.9184 199
466.304 271
466.7441 173
467.2829 152
467.3742 264
471.8892 133
472.3766 299
472.9777 119
474.3302 327
478.3432 180
479.3386 320
480.3445 150
482.3709 497
483.3648 389
484.3114 2777
485.3132 791
486.3173 166
486.8735 203
487.3896 146
487.472 862
488.4718 265
489.4209 2443
490.171 115
490.3667 270
490.4306 566
490.9882 212
491.3774 190
493.8097 107
496.3613 3809
497.3697 967
498.3689 171
500.38 178
502.3249 4011
503.3342 1024
504.3462 159
507.8042 118
510.3704 228
528.3853 556
529.3931 169
551.3984 165
552.3923 155
553.3954 424
554.3992 156
557.4602 197
563.389 115
569.4177 488
569.4279 255
570.4089 239
570.4219 246
571.4213 140
575.4686 2260
576.4719 812
577.4841 183
579.4207 492
580.4074 370
587.4376 366
588.4375 161
594.0704 333
597.4288 7189
598.4358 2342
599.439 433
607.4285 162
615.4403 738
616.4446 258
628.5043 158
646.5228 3422
647.5305 1409
648.5302 297
682.5369 126
692.5263 426
693.5325 243
710.5424 2328
711.5434 922
743.5671 571
744.5593 469
761.5697 7919
762.5755 3771
763.583 906
763.5855 919
764.5726 166
764.5921 194
807.6087 419
874.6809 2345
875.6893 1273
876.6914 451
877.6908 142
END IONS
BEGIN IONS
TITLE=Spectrum 1YAAELHLVHWNTK_mz791.csv DRIFT_TIME=15.9011 15.920601 15.882 16.0032 15.937599 15.654301 15.8881 15.910301 16.0877 16.1285 15.9368 16.1882 16.1034 16.1134 16.111 16.1464 16.011 16.1138 16.1908 16.4903 16.068 16.1102 16.2375 16.2329 16.1984 16.3305 16.1861 16.2834 16.5631 16.3192 16.4594 16.4882 16.3175 16.4277 16.4229 16.8706 16.5081 16.4201 16.6152 16.751 16.8845 16.8502 16.4085 17.1963 16.897 17.9745 16.9222 17.1119 17.7402 17.1933 18.3811 17.5637 17.7905 17.9151 18.9737 18.215 18.7413 17.3781 17.2541 19.9359 17.3295 18.065 19.3566 20.0532 18.662 19.897 32.8878 20.9444 18.0621 19.1334 19.1888 25.9577 25.4967 22.4441 20.3938 21.968 18.1772 26.0876 19.3359 26.1783 19.3175 19.4181 34.9353 19.6152 18.7904 25.7546 16.5859 25.5069 23.9142 29.7046 22.4275 22.989 22.0375 21.2016 19.5677 30.7891 22.7512 27.7393 22.3066 26.759 21.3835 27.0421 21.165 21.4265 23.304 22.1015 31.271698 17.6178 27.1915 32.1333 20.2998 33.0331 24.8188 22.1816 26.1382 28.8261 28.8639 26.0643 33.5711 20.3442 17.7112 17.5842 27.1156 21.0169 35.2723 19.0782 26.7448 22.7911 33.4784 26.5164 21.6585 26.3693 26.5837 26.0435 26.8233 32.6118 27.9292 30.0369 16.629 27.2581 19.4211 27.2294 26.9989 26.8249 27.1315 26.6478 35.3727 29.281 35.0806 31.921501 31.913002 31.834702 23.8971 24.0411 29.8932 24.0764 29.555 29.1693 29.7246 31.938301 45.0394 31.8279 37.0449 44.8815 25.5819 24.3734 24.1105 37.3167 24.6898 37.5377 37.1666 33.5878 16.7963 33.7036 16.4986 29.3743 41.5915 26.0731 46.9758 25.1459 31.779602 31.8727 32.3002 16.795 16.8139 18.8535 22.0551 48.813 16.6667 16.7522 32.2862 34.8104 16.8949 27.266 16.9781 16.9922 16.9927 24.2587 27.8843 27.8974 28.7396 27.5248 44.1324 16.9814 37.1004 37.1411 23.4443 33.7032 20.1156 19.8641 45.6467 46.86 17.1852 17.0996 17.0509 26.2914 17.1076 17.0924 46.9061 28.8892 29.1516 28.992 21.1555 29.123 35.2702 17.2936 17.3316 17.3669 38.2953 38.2163 38.4159 38.6689 38.2184 49.4071 27.5072 38.0706 17.0224 17.57 39.7863 21.4765 17.2875 27.8654 17.4893 21.4557 38.4683 22.1808 31.771698 27.1924 31.8959 24.5134 24.1138 31.8138 24.2292 48.2564 31.881798 20.5105 32.0161 46.7052 31.2486 31.607101 17.6439 24.3318 17.9225 24.6294 17.5877 24.2006 17.6091 27.6184 27.5189 27.6666 34.6963 52.2904 52.9016 20.5615 20.1551 48.8859 60.7194 25.6537 51.0647 58.7624 17.5869 25.3988 25.3958 25.2003 25.1372 24.4906 49.7782 50.941 17.2469 17.8499 17.7652 17.9417 56.0234 35.615 35.6139 41.5537 35.9588 48.2209 28.2986 28.9817 33.96 18.8392 49.4128 34.2591 18.8351 50.1697 53.0029 33.693 52.6902 52.2118 29.7452 29.2467 17.583 17.6503 18.3786 44.274 43.9956 44.2021 43.3592 44.9637 28.7643 17.9509 17.9021 17.9844 56.0293 60.1671 34.0883 56.0229 18.2116 42.1127 54.8138 33.0157 33.1283 36.0637 33.1057 43.1126 42.45 30.546 18.9683 30.316 30.4779 18.5857 38.5896 23.8251 23.3186 32.1429 30.9521 31.221703 26.9662 26.6463 45.4582 26.85 45.2765 45.7256 35.3585 35.6927 42.8469 33.9425 33.6342 35.008 27.9835 34.1053 28.3407 34.219 37.3024 40.192 48.1739 47.7657 48.1263 47.6631 29.2988 29.1855 28.5884 42.7475 64.7816 42.7532 42.0124 34.3072 47.7284 34.2162 47.6563 46.2655 66.323 47.0198 43.8756 35.6981 36.1213 35.8181 36.0226 38.5058 50.3265 50.1206 50.545 72.4802 38.7549 38.4076 50.1773 69.6708 69.3052 69.2041 45.6165 39.2385 39.8963 39.8514 66.7924 38.6749 50.8841 67.9773 38.7362 38.471 39.3157 69.4067 39.9223 39.9558 39.816 39.5993 34.7528 35.8128 50.0655 71.1944 35.5532 70.9725 52.335 69.8132 51.0253 51.5446 51.4473 26.3698 52.4702 41.1293 38.9221 42.7127 44.1935 44.8579 72.7726 41.551 45.2405 45.3116 45.2218 45.0335 43.8783 43.6043 42.4369 42.5347 41.9118 41.4702 49.0652 49.5416 39.4351 50.0242 56.3393 42.319 42.4558 40.3953 41.0512 40.4093 39.7892 79.9439 54.5508 52.582 60.5191 59.3271 28.378 29.0563 50.6806 28.9041 29.0028 92.9604 49.8521 47.4504 29.4673 29.6502 29.2935 29.7807 29.3257 29.3458 29.5545 53.2788 51.5713 47.8825 49.6209 50.3011 83.6445 82.3201 83.7805 86.0626 44.3021 44.1974 44.9825 105.5883 43.162 53.051 99.7681 52.9486 53.0234 100.2291 52.9072 54.0172 47.4993 98.2646 115.3571 47.3525 48.2737 52.0635 51.1915 95.4528 57.5036 56.0411 91.0884 90.4962 91.5723 57.8431 58.1572 56.3908 39.8201 54.4026 54.4185 61.734 61.4096 102.0823 100.2215 103.1979 61.9786 62.2432 50.9798 77.6308 67.3063 67.3588 124.2859 123.3984 120.784 127.720795 146.319 141.5895 
PEPMASS=791.415
CHARGE=2+
55.0647 188
56.0592 611
57.0446 359
70.0765 1269
72.0927 742
74.0717 182
83.0734 241
84.0581 577
84.0939 1578
86.11 650
91.0687 447
98.9904 188
102.0719 483
104.0855 858
110.0878 1722
119.0702 308
120.1001 580
122.0993 2121
129.1219 758
129.9851 263
130.1076 482
132.1004 205
136.0966 5769
137.0997 613
143.1031 380
147.135 289
154.1458 498
159.117 1162
160.0541 180
162.1178 326
171.1768 261
172.0033 403
173.1142 226
175.146 279
187.1752 181
198.0224 191
199.1384 469
201.1185 483
202.0159 668
204.0325 842
207.1445 1754
208.145 192
210.0601 822
215.1745 176
216.0344 340
223.1897 366
227.1395 433
228.1544 197
230.1861 362
232.0129 179
234.1647 166
235.1445 1945
236.1471 305
237.1701 165
243.1804 131
248.2002 1577
249.2032 274
250.0256 3232
251.0332 274
251.1895 560
252.0245 364
263.0235 239
272.1666 324
273.1694 139
275.9568 126
281.1439 132
283.307 160
284.1543 147
287.9879 333
289.0446 549
292.0462 196
294.2593 242
295.2454 145
296.1951 248
300.9793 149
301.1693 138
306.0057 150
306.1935 574
307.0547 10436
307.1871 117
308.0598 1339
309.0546 1409
309.3308 128
310.0534 163
311.0485 356
312.268 256
314.2081 106
314.2213 204
319.1012 268
323.2765 142
323.9621 562
324.199 286
325.9631 228
333.9956 136
337.8873 139
340.2435 345
341.9777 487
343.2107 161
343.9739 229
344.246 204
345.0097 2921
345.2296 452
346.0126 392
347.0047 318
348.0086 180
349.0064 291
350.2733 506
351.8515 315
355.0869 225
355.2528 123
355.8993 162
357.305 358
360.0159 193
361.9238 207
362.0327 159
362.2591 2052
363.2631 385
363.9895 210
364.2955 158
367.8964 145
369.8496 119
369.8871 178
374.0294 142
377.9634 184
378.2714 149
378.7958 206
379.0029 479
379.9357 287
380.256 238
380.9945 1596
381.92 134
381.9968 248
382.9906 967
383.9928 171
384.9858 426
385.2651 136
385.9698 143
391.0629 141
394.0054 146
394.0113 139
396.805 190
397.0157 168
399.0068 630
401.0093 426
402.9957 175
405.0418 176
407.2626 596
408.0224 177
408.2567 195
409.072 5336
410.0793 781
411.0673 593
415.9137 2070
416.9146 157
416.9785 573
417.9154 218
418.9775 556
419.968 141
420.9721 534
422.1905 1484
422.3636 338
423.1965 222
423.2851 229
423.3616 110
428.9119 287
433.9267 4302
434.9338 324
435.256 1336
435.9275 339
436.2609 358
438.26 272
440.2037 175
441.0077 140
445.0574 396
445.9382 268
447.0321 1775
451.3049 265
451.8988 597
453.3408 141
453.8767 347
454.9311 1016
456.9229 239
458.9721 159
458.9888 144
459.9807 126
461.7656 123
462.2253 159
463.3829 127
463.9313 213
464.9291 211
465.0603 120
466.1092 120
469.5159 1108
469.9164 140
470.0184 332
470.5198 307
471.5154 133
471.888 273
472.9424 1727
473.945 287
474.9425 251
476.9361 222
477.3057 137
479.0577 265
481.0401 542
482.0397 166
482.8253 127
483.0161 329
484.2427 357
484.7188 151
486.2739 108
487.3522 362
487.5075 1111
488.0076 393
488.504 774
488.9172 125
489.0054 233
489.5073 229
490.3389 237
490.9569 2604
491.9543 445
492.9566 404
493.775 146
494.9509 376
497.0329 386
498.0326 1392
498.5316 383
499.0288 337
499.0434 12670
500.0517 2721
501.0453 3318
502.0543 567
503.0378 796
503.3434 170
503.8532 162
504.063 222
504.9592 141
505.494 203
506.0742 108
506.2954 128
506.4914 267
506.9332 121
507.4901 161
507.7683 274
508.0789 163
508.2724 167
508.9252 2390
509.3525 129
509.9328 433
510.2975 345
510.7945 166
510.9229 2348
511.2991 121
511.3656 187
511.9253 604
512.7312 126
512.9214 1227
513.3408 152
513.9134 166
514.9181 304
516.021 1230
516.2995 389
516.524 338
516.8011 170
517.017 563
517.2914 170
517.5176 220
517.8563 1412
518.3575 897
518.86 345
518.99 135
520.3567 375
521.373 128
521.7348 819
522.2402 472
522.3477 226
524.4021 158
525.3038 5962
525.3607 107
525.4038 121
525.4743 124
525.8103 3680
526.3001 1837
526.7974 710
527.3 297
530.2558 164
530.3508 166
531.3475 179
533.4818 932
533.9973 414
534.4834 255
534.9992 287
536.3861 187
537.0057 3351
538.0151 438
538.0791 168
539.005 353
539.3185 112
543.8464 1342
545.8379 136
546.8813 1358
547.0271 163
547.167 834
547.877 143
548.0275 145
548.1617 139
548.3699 2128
548.8753 323
549.3725 682
550.3814 144
550.8602 218
551.3618 134
551.4705 267
552.464 309
552.9918 186
556.0845 640
557.0762 154
558.0751 274
559.0718 120
560.077 193
561.8605 515
561.9945 647
562.5 198
562.9971 177
564.3971 185
564.4141 221
564.8948 331
566.4131 150
570.4494 133
571.0473 162
572.3357 105
574.4089 759
574.9112 423
574.969 384
575.4021 226
576.0219 424
577.0054 144
579.8526 595
579.9897 261
580.3518 565
580.8536 279
580.9864 134
581.166 155
585.7361 164
586.2385 155
586.3901 190
588.8514 142
589.3556 129
593.2855 448
593.7941 408
594.0296 15343
594.2983 271
595.0351 2590
596.0329 1521
596.906 166
597.3995 145
598.0369 287
600.8762 1265
601.8892 205
602.8845 152
606.8318 189
606.9705 169
607.3309 131
607.4804 154
610.8963 176
610.9412 140
613.1071 1213
614.1163 220
615.0997 222
617.0976 127
620.8398 435
621.3411 257
621.8385 110
626.9829 1934
627.4185 156
627.9853 349
628.9809 520
629.9293 234
630.0173 1204
630.4293 232
631.0107 235
631.9992 610
632.4536 279
634.0172 211
635.9972 148
638.829 148
638.939 520
639.4362 425
639.935 206
647.9703 107
651.0609 3507
652.062 514
653.0629 373
653.5094 118
653.9308 190
654.4357 197
655.0637 121
657.4482 527
658.4394 209
663.4818 152
664.9188 152
665.4524 124
665.9525 203
666.4462 141
667.4357 188
667.9349 595
667.9751 203
668.4242 257
668.4358 590
668.9365 292
669.4393 144
673.471 159
674.4607 1548
674.9654 1170
675.4656 520
675.9767 237
677.3849 160
677.8825 147
684.0118 211
685.4435 2654
685.8601 104
686.4462 1108
687.0429 946
687.4461 298
688.041 123
689.0192 788
690.0214 214
690.7181 137
691.0101 195
696.4555 164
696.9446 121
700.5569 136
701.4785 154
701.9744 107
705.5126 154
709.4665 201
709.9806 1108
710.4848 841
710.9793 361
711.4873 127
713.0001 186
713.5012 188
718.4643 325
718.9735 266
719.4651 169
719.949 122
721.9598 2041
722.959 251
723.7085 117
723.9634 260
725.0023 173
726.0142 115
726.5173 173
727.4704 151
727.9752 152
733.9277 157
734.4297 161
734.546 129
741.0347 365
759.9169 283
760.9728 179
762.9737 116
769.4317 234
769.7743 334
770.0576 150
770.1093 171
770.4322 114
770.5411 281
774.014 144
774.5079 144
775.1074 423
775.4391 1279
775.7716 1148
776.1117 807
776.4393 427
776.7806 282
777.104 158
778.996 633
782.5205 291
782.5329 288
783.0232 461
783.5222 307
784.5359 1120
785.5341 500
786.5469 169
787.5235 205
789.8667 108
790.1931 172
790.5302 119
790.7088 125
791.2676 116
791.5251 5528
791.6684 503
792.0262 4942
792.5298 2699
792.682 237
793.0314 942
793.5141 234
793.6098 1271
793.6774 360
793.7509 153
794.1171 1143
794.6211 652
795.152 273
795.6526 201
795.6658 301
795.8946 205
797.8862 137
798.5405 622
799.5385 325
800.5505 197
814.9877 135
816.953 274
826.5914 145
846.1922 121
848.0895 178
848.5943 229
852.9275 382
854.9205 174
897.6243 1380
898.6296 826
899.6276 255
904.621 114
905.1374 161
907.0131 104
922.166 118
939.6751 231
940.1575 143
1034.7084 1230
1035.7087 733
1036.709 266
1036.721 260
1147.8153 303
1148.8242 227
END IONS
BEGIN IONS
TITLE=Spectrum 1YGDFGTAAQQPDGLAVVGVFLK.csv DRIFT_TIME=11.2894 11.0708 11.1495 11.3452 11.2621 11.1312 11.3596 11.3537 11.394 11.241 11.2249 11.1512 11.3683 11.4485 11.3479 11.3924 11.332 11.4024 11.4466 11.3276 11.4431 11.4704 11.452 11.7623 11.5711 11.5771 11.7362 11.7586 11.7165 11.7283 11.8688 11.7976 11.7986 11.8816 12.0325 12.0923 12.1274 12.5461 13.0232 12.477 12.1462 12.2207 14.1426 13.4836 15.354 12.652 13.1897 15.652 14.2631 13.7055 17.6197 13.4985 16.0692 15.311401 16.2075 13.7373 13.6765 13.7052 13.6707 13.584 15.9016 16.8812 17.997 18.8381 19.5018 19.3661 15.219 15.103901 15.272701 23.0776 20.5703 21.7125 18.3173 21.4959 21.3042 18.7946 20.1769 18.6751 18.7463 24.0131 23.7019 19.0134 24.7418 19.2753 24.1321 25.8592 27.134 27.4592 16.9985 23.9368 21.1004 20.9039 24.6757 26.6495 25.2045 26.4215 27.2137 17.3979 17.5364 28.2999 17.2285 27.0234 28.3459 21.2516 28.0946 29.1974 22.8225 29.9299 28.9118 22.4032 28.5159 29.9858 24.7886 30.1968 19.7932 19.8772 30.3355 19.5864 30.0998 24.3893 30.8356 14.2446 31.309402 20.3674 20.5329 31.854797 20.3558 30.8811 32.1125 24.9296 12.0466 26.911 32.3027 27.0518 28.8136 28.036 39.4625 22.4992 32.8322 22.4678 22.5463 33.443 22.4543 35.6245 22.3018 33.6969 12.2873 37.2108 12.3299 34.8297 18.4298 37.3083 16.8191 16.4153 33.2541 34.1675 12.8526 12.6109 26.0952 25.3365 34.9656 16.2695 35.1252 35.3232 12.6724 35.3417 23.947 35.7705 23.7256 15.622799 36.5548 36.8568 15.178101 12.4094 13.0871 36.5129 12.834 13.1446 36.2884 13.2613 37.5211 31.2756 31.107101 36.5312 31.115501 37.0787 31.174599 31.0363 12.5448 37.2252 42.0385 17.487 42.2065 37.0078 41.6688 38.0333 16.6152 12.8329 13.7777 12.8235 13.8114 13.1426 13.5456 26.0856 32.7985 39.2365 39.7337 39.2279 13.2177 13.1474 13.2041 39.145 39.2007 13.0611 13.3313 13.2754 33.8271 39.6245 33.7636 41.5873 29.9625 40.5348 30.0479 40.5993 30.1092 41.3092 29.6632 30.0787 13.3385 13.3379 13.4219 13.3314 23.9313 13.1651 23.8872 13.1043 39.8195 24.0805 38.9622 23.6188 41.3063 41.5062 28.6906 34.1325 43.7457 34.2577 43.0859 34.0594 35.0571 12.8481 14.0881 34.7015 14.1195 14.0639 42.5299 14.005 13.8731 13.9196 14.2042 40.8765 41.7741 42.053 43.4097 43.8186 46.6594 29.1074 29.6747 33.08 32.3194 32.5838 32.4016 13.5642 14.5964 31.7667 14.6272 45.2341 14.8384 25.3699 44.0222 46.7305 45.6493 13.7178 13.7378 37.2263 47.0116 37.1114 47.003 35.7451 35.4005 46.3733 35.8284 14.1032 47.0392 15.3414 35.5508 46.233 15.2882 34.7681 15.0536 31.997498 31.5111 53.0329 29.2717 14.0363 52.9731 14.2101 47.0602 54.1066 14.103 46.8457 46.9612 47.6517 35.6975 47.2654 33.5552 21.8744 24.9206 48.3353 25.2616 48.9283 15.1064 24.14 48.9756 24.5406 24.0264 34.9472 50.5527 35.0664 49.8176 24.9854 35.0998 24.6689 24.9255 36.3634 35.1536 36.6932 26.3897 36.4834 26.4101 36.7329 25.5859 37.2197 48.9501 36.2261 48.7701 49.8142 50.1581 15.748901 15.6273 36.9289 51.101 50.6001 52.927 27.5338 50.996 51.3611 52.7077 51.2493 34.5433 39.9413 39.784 54.0345 38.7233 39.4462 38.5847 38.7094 39.0906 38.2117 38.7591 53.6287 56.3322 37.5678 42.9354 60.3051 36.8101 59.9222 43.0453 56.2302 54.5576 42.8613 56.906 56.874 37.9804 38.2972 59.4477 38.1963 56.3862 38.0576 56.5314 38.3599 58.4485 58.8108 59.7398 40.6219 40.2991 46.0413 59.4365 59.7035 45.2158 61.8134 61.3873 41.2428 41.1096 40.9914 41.1682 40.7515 42.3855 33.7351 33.3532 33.3825 68.0812 67.6463 42.2735 67.2902 64.0573 43.8735 44.142 43.7738 43.9735 43.7247 43.9417 43.262 42.077 46.7902 46.4457 46.4709 46.703 65.9445 42.5767 41.7056 69.6161 68.4361 50.9183 47.2293 67.3632 48.0801 47.0745 44.2137 45.5532 45.032 45.6755 44.6883 78.375 79.8379 45.1179 51.233 48.331 47.8896 48.6589 100.8141 99.0973 51.8913 49.7589 49.7268 48.6853 77.0396 49.4623 80.4482 53.3282 49.3506 54.0355 54.4058 51.3028 54.8969 54.4541 53.4195 137.2718 136.2905 139.6998 124.1956 
PEPMASS=1127.0825
CHARGE=2+
56.0604 352
57.0449 221
70.0781 331
72.095 412
84.0601 351
84.095 685
86.1131 298
88.0549 145
101.0885 334
104.0895 807
110.0916 146
119.0721 214
120.1019 2223
121.1074 207
122.1029 1708
129.126 387
130.1113 390
136.1006 2141
137.1056 298
141.091 374
147.1419 240
157.127 197
171.1454 176
171.1822 160
172.0051 313
192.1366 137
193.137 203
200.139 258
202.0208 779
204.0341 177
205.1378 283
212.1411 435
213.1347 216
216.0421 378
219.155 141
221.1297 327
230.1578 197
235.1546 535
239.1574 193
240.1443 229
250.0364 905
252.0323 185
256.2135 187
257.1737 191
260.2465 761
263.0358 399
263.1319 137
264.1852 165
270.1607 364
271.1852 148
288.1891 432
289.0529 608
295.1989 123
304.2236 161
306.2016 285
307.0643 14710
308.0698 2245
309.0624 2158
310.0708 237
311.0616 425
311.1939 161
320.1814 160
328.2268 130
331.2379 149
336.1813 1747
337.1858 332
345.0235 1360
346.0207 164
347.0256 211
355.269 411
359.2378 228
362.2022 373
371.1384 130
372.2586 111
377.2193 206
381.0069 1182
381.2153 218
382.0117 173
382.9997 620
383.2641 379
392.2225 234
399.0195 423
399.271 137
401.0173 186
403.2343 175
407.2428 229
407.3429 1766
408.3483 497
409.0927 354
411.2768 148
416.9875 454
418.9883 519
421.2568 177
426.3256 289
429.2948 244
430.2914 274
432.2775 142
435.0049 1944
436.0091 169
436.3067 146
436.9983 141
438.2553 191
446.2986 147
447.0458 204
448.3013 308
454.3192 1132
454.9397 157
455.2984 380
456.318 163
456.9524 137
460.2723 451
464.2798 166
466.1243 347
466.3183 340
472.9575 1803
473.9607 222
474.2891 238
474.9594 193
478.2813 358
483.0296 137
483.2768 156
484.2436 124
486.3005 251
490.9726 2727
491.981 272
492.2995 143
492.9724 327
494.3187 406
495.295 208
497.0444 275
498.0527 203
499.0564 348
500.3415 136
501.0552 130
502.0988 211
504.1026 187
506.4343 477
508.9392 5937
509.3079 279
509.9473 844
510.9383 3466
511.3599 150
511.9417 336
512.3352 216
512.9373 425
513.3058 199
516.0366 248
516.4153 129
517.0348 278
522.3339 184
525.3267 117
525.4062 450
530.2713 258
530.7717 128
531.3231 524
532.3268 175
535.0247 316
536.0135 220
537.0241 403
539.0104 123
539.3643 152
539.8078 258
540.324 468
541.3337 177
543.4804 142
545.3425 108
546.8992 507
547.3304 160
548.893 227
549.2488 153
549.335 439
550.332 147
551.2425 119
552.4864 137
553.0051 364
553.4018 1492
553.4934 140
554.0073 413
554.4096 439
555.0089 193
555.416 141
556.0934 3853
557.0999 1098
557.3781 201
558.0945 1202
558.3717 176
559.0979 218
560.0864 315
562.0156 259
563.3498 116
563.4636 2644
563.8014 192
564.465 866
565.3711 756
565.4635 174
566.3454 297
566.7679 134
570.482 219
571.0012 217
571.4697 286
571.994 386
572.4743 163
572.9819 245
574.982 217
575.1789 249
576.3836 207
577.3672 115
578.3399 251
580.0135 280
581.0044 366
581.9943 152
582.397 261
583.4126 124
588.4656 201
589.4546 185
590.4552 186
592.0864 401
592.3949 172
593.0831 121
593.412 163
594.0529 5290
594.3991 160
595.0606 1134
595.378 144
596.0509 836
596.3535 239
597.0493 137
598.0473 196
598.9847 687
599.4825 249
599.9815 589
600.4874 205
600.8934 8183
600.9827 329
601.8988 1110
601.9889 186
602.3773 300
602.8964 926
603.3875 167
604.8873 224
605.3702 142
610.4423 222
610.9657 134
613.1271 4000
613.3822 247
614.1326 965
614.3896 128
615.1293 897
616.1319 169
616.4387 181
616.9795 556
617.1178 209
617.4785 255
617.9726 687
618.376 131
618.4784 248
618.969 394
619.4647 172
619.964 160
620.3893 410
621.3932 204
622.4 265
623.3679 677
624.3687 247
624.4963 142
624.9911 214
626.9947 228
630.0432 180
632.0069 577
633.0158 182
634.0197 299
634.4353 129
635.9601 315
636.0071 142
636.9538 227
637.4034 119
637.9574 150
638.851 248
639.4219 118
641.3819 559
642.3864 151
644.9587 229
645.955 130
649.1119 1180
649.3858 409
650.122 296
650.3865 230
651.0871 3154
652.0858 653
652.4923 736
653.0852 721
653.4282 119
653.4961 270
653.941 180
654.0822 134
654.4781 136
654.9397 210
655.0727 221
655.9369 121
656.8183 138
658.8185 110
662.5518 1768
662.9481 211
662.9541 339
663.5513 817
663.9492 316
664.4574 306
664.5611 243
664.9473 189
665.4634 170
666.4169 210
667.4102 312
667.9951 131
668.4109 205
669.9851 150
674.7912 118
676.3767 152
676.4203 253
676.8735 120
681.4952 312
681.9368 185
682.3209 307
682.4919 137
682.8306 139
683.3154 174
684.0291 4465
684.4272 228
685.0384 1197
685.4455 107
685.8824 186
686.0327 1543
686.3838 138
686.8897 114
687.0568 692
688.038 366
689.0441 1505
689.9295 368
690.0434 340
690.4351 263
691.0464 426
691.8604 132
692.044 108
692.4708 111
693.044 152
693.4498 279
694.4207 787
695.4175 375
699.9193 154
700.9178 117
705.9556 179
709.5248 537
710.5009 358
711.5189 155
711.9411 145
712.4304 757
713.442 290
720.4439 134
721.4517 116
721.9936 372
725.0287 354
727.0194 203
738.444 134
741.0607 3566
741.9203 274
742.0684 778
743.0674 683
743.9214 167
744.0727 130
745.0647 189
748.4577 122
755.4897 149
759.9457 345
761.0163 377
761.6341 696
761.9617 135
762.6427 360
762.9998 343
763.5451 122
764.497 125
765.0164 113
765.4749 538
766.4753 280
779.019 2402
780.0268 561
780.5853 233
781.0142 551
781.5621 164
782.0249 120
782.5184 114
783.0216 221
783.4913 388
784.4895 300
792.5252 104
795.9386 227
797.9155 267
798.9741 111
800.5041 266
801.503 122
803.1152 132
808.6083 490
809.5935 256
815.0045 495
816.0123 111
816.9744 1258
817.9753 213
818.9856 328
820.9816 171
826.468 512
826.9719 410
827.4735 217
832.6847 640
833.6831 315
833.8939 169
834.6946 139
837.6118 103
850.9762 155
852.9589 1704
853.9597 358
854.9531 996
855.9573 242
856.958 311
869.8632 155
887.8704 126
888.9283 351
890.9219 435
891.9259 177
892.9205 242
893.554 180
906.9426 315
908.955 115
911.5595 314
912.5666 176
924.9278 107
926.9002 280
928.593 184
928.8925 319
930.8944 195
942.9484 149
944.9112 1233
945.9261 240
946.9092 238
948.9143 118
955.7039 210
956.7074 148
961.8276 166
968.9935 122
980.8954 408
982.8768 402
984.8769 135
1002.8201 363
1003.8254 245
1016.8875 125
1018.8468 544
1019.8583 114
1020.8427 306
1022.6265 177
1022.8313 160
1039.6755 262
1054.8273 153
1072.8365 142
1092.7925 139
1094.808 123
1110.8027 179
1128.7289 144
1129.2548 137
1129.7181 139
1214.9375 987
1215.9451 855
1216.9496 314
1325.9998 290
END IONS
