BEGIN IONS
TITLE=Spectrum 1AVVQDPALKPLALVYGEATSR.csv DRIFT_TIME=11.2327 11.0954 11.2467 11.2877 11.3053 11.2152 11.1838 11.2084 11.4142 11.3938 11.2818 11.3057 11.3742 11.3868 11.5282 11.4278 11.4115 11.3939 11.4783 11.526 11.5514 11.5259 11.8005 11.3961 11.4941 11.4749 11.7034 11.3977 11.4483 11.4203 11.9249 11.5248 11.4513 11.7193 11.8121 11.6564 12.5227 11.6673 11.9304 11.963 12.173 12.3018 12.3642 14.1219 12.7876 12.2712 11.9989 13.1035 17.1185 13.5998 12.8323 13.009 14.2083 13.9825 18.1917 18.5355 14.249 15.755299 12.9611 13.6096 13.0209 14.4728 13.7243 13.687 13.6752 13.7085 13.6745 17.567 16.7862 18.7349 15.239 18.2997 19.783 19.599 15.1602 15.198799 15.1591 22.0086 21.8057 20.0988 24.3672 18.5479 14.7778 18.6672 18.6516 18.8583 22.8668 19.1472 23.5215 23.061 27.9159 23.9961 24.9667 18.7417 18.96 17.0827 17.2025 27.7432 28.0495 25.3452 25.4582 26.1132 21.2288 21.3988 22.0663 27.9044 17.4149 27.8524 27.7657 27.2752 24.2225 22.0228 30.0183 22.6477 22.6797 23.1724 24.0207 24.9819 28.5944 30.5956 30.0181 19.6009 19.9191 19.6003 19.5093 20.5181 20.6421 20.4832 31.5904 36.677 20.721 31.654099 31.364899 25.4334 33.9093 12.1665 23.1014 28.2481 26.7224 33.2061 36.3793 22.5434 22.8163 22.7156 32.7224 22.3183 32.7422 22.3876 33.7856 33.6913 25.6314 12.3858 12.4018 12.4352 14.103 14.4255 39.35 12.4574 35.1352 12.3883 35.3433 16.8708 23.8479 12.9012 12.7844 26.0837 29.507 26.9542 28.7521 35.7897 12.6921 12.727 27.0182 24.1841 17.0119 23.846 24.1874 39.5579 13.1133 13.0303 12.9568 31.2485 31.2682 31.257797 31.355 30.9246 12.3551 12.447 12.5557 36.8741 17.505 24.4673 13.1079 16.5583 24.0781 16.3412 38.6908 16.3022 12.678 13.2251 12.7864 13.6863 13.0535 14.038 29.1903 26.382 38.4086 13.3812 12.8227 40.9501 13.2298 13.0953 39.9485 25.3318 19.322 13.2903 13.1956 13.9075 13.2342 14.0613 31.660698 31.8138 32.0603 42.0241 31.938599 32.4379 13.3695 13.2413 13.3126 13.1481 23.9222 13.3864 24.404 24.2961 24.2073 13.9523 13.7093 41.5286 29.2785 41.3496 34.1392 34.5235 33.9545 33.9696 34.2243 13.8183 33.6931 14.0576 14.0643 13.7996 13.6787 41.8689 49.6152 27.6314 42.0647 49.1924 27.9437 44.9139 29.2664 44.5869 33.4441 32.4248 34.1698 37.6797 33.8733 34.0405 13.4548 45.2386 14.5838 33.9676 14.538 25.9835 25.5887 26.1572 13.5153 35.6065 35.6867 35.6535 13.9661 47.3066 15.430599 35.5202 15.499001 35.4539 32.237 31.7705 31.8919 13.9589 47.689 14.4519 45.9689 31.318298 34.8568 34.1817 21.856 21.6341 21.6462 48.1845 15.1651 24.0597 47.5861 49.2 35.1625 35.0449 24.9277 35.0363 24.71 24.5766 37.2744 37.1414 36.929 36.7354 36.8136 55.0482 25.5078 37.1372 27.7473 36.6327 29.6031 50.2078 50.0648 25.9714 16.1219 29.853 29.7685 39.5052 30.0417 36.3404 36.1107 26.9213 26.6832 34.8453 40.7009 34.9557 39.893 35.3303 39.694 39.6372 35.7345 38.6757 39.3564 38.7201 38.422 39.414 37.9977 33.3963 33.265 37.6188 34.6232 36.8169 43.0559 36.4518 42.3951 43.1926 53.8564 38.1202 38.001 37.9913 38.7771 38.0164 59.5954 58.9422 59.0429 60.6569 60.3877 36.75 41.0008 38.9907 44.945 41.0839 40.8724 40.6719 40.6259 40.1006 42.1578 43.4261 41.6252 38.7942 40.8734 40.8762 40.8496 40.8942 41.0429 44.3263 43.6879 43.9393 44.0618 44.7896 43.6201 43.7906 73.5988 72.7011 41.951 47.9382 46.1144 45.9357 46.9504 43.1448 43.7172 43.6749 77.0844 41.9786 42.8735 47.946 48.8424 47.2514 44.7542 45.2844 45.7819 45.4801 45.0624 46.3959 46.4728 46.386 45.93 45.7688 45.8648 46.0684 45.5635 48.7885 48.492 47.7681 86.8976 87.4537 49.6081 49.3135 49.0084 49.3493 48.8794 50.0996 49.447 53.0859 55.2587 96.957 97.1824 54.8706 54.619 55.8682 55.1806 56.1751 56.2237 56.4997 56.4708 56.7204 51.2785 116.8032 133.2865 133.1303 137.1663 130.0772 131.6484 138.8693 142.99 137.6125 158.8496 162.9964 155.9872 
PEPMASS=1099.615
CHARGE=2+
55.0526 297.0
56.0479 492.0
57.0322 253.0
70.0621 1812.0
72.0771 3474.0
73.0814 196.0
84.0399 658.0
84.0760 934.0
86.0913 324.0
101.0677 244.0
104.0655 689.0
117.0986 205.0
122.0753 1485.0
129.0962 1314.0
130.0955 183.0
136.0705 166.0
141.0957 842.0
143.1111 1001.0
154.1164 182.0
169.0886 1831.0
170.0923 193.0
171.1050 1060.0
171.9689 306.0
172.1056 186.0
175.1121 426.0
181.0537 228.0
183.1406 188.0
185.0708 278.0
185.0898 292.0
196.0536 206.0
197.1557 422.0
198.0775 160.0
199.0638 175.0
200.1320 205.0
201.9769 575.0
203.9912 173.0
211.1381 189.0
213.0764 815.0
215.9900 276.0
216.0888 241.0
226.0718 191.0
227.0559 583.0
228.1242 651.0
242.1749 668.0
244.0818 1119.0
249.9765 1045.0
251.9759 126.0
252.1633 150.0
254.1747 137.0
262.1417 228.0
262.9786 287.0
266.1072 211.0
270.1712 306.0
281.0919 458.0
282.1700 1100.0
283.1776 155.0
284.1108 1167.0
287.1976 161.0
287.9298 331.0
288.9878 464.0
291.0315 154.0
300.9169 131.0
306.9929 10444.0
307.9971 1737.0
308.9927 1692.0
309.9976 202.0
310.9890 366.0
324.1080 614.0
326.1211 620.0
327.1875 138.0
338.9692 246.0
341.1319 213.0
343.1462 2975.0
344.1495 525.0
344.9406 1936.0
345.9431 246.0
346.9388 344.0
353.2118 176.0
355.1874 134.0
363.1849 245.0
369.1895 150.0
371.0431 269.0
377.8672 182.0
380.9173 805.0
382.9157 462.0
382.9988 341.0
384.1710 138.0
384.9179 123.0
394.1554 339.0
395.1482 468.0
395.2513 391.0
397.1924 531.0
398.2215 406.0
398.9320 284.0
400.9220 199.0
408.9992 3179.0
410.0064 349.0
410.2584 2604.0
411.2638 620.0
412.1645 797.0
413.1713 139.0
414.1823 173.0
416.8964 454.0
418.8932 326.0
420.9364 148.0
434.2196 1217.0
434.9103 758.0
435.2191 324.0
438.2557 123.0
442.2119 300.0
444.9671 135.0
446.9458 359.0
452.2705 318.0
454.8408 706.0
456.8364 425.0
458.9940 611.0
460.9947 118.0
466.0165 171.0
466.2058 119.0
467.2348 173.0
468.2277 250.0
472.8499 1617.0
473.8547 239.0
474.8418 271.0
476.8423 156.0
490.8608 2398.0
491.8684 413.0
492.8619 445.0
494.2043 147.0
494.3101 360.0
494.8559 206.0
495.2388 340.0
496.2261 201.0
496.9360 238.0
497.2554 192.0
497.9378 374.0
498.9547 293.0
501.9913 121.0
503.9771 154.0
507.2417 159.0
507.3114 140.0
508.8264 1501.0
509.8304 195.0
510.8242 983.0
511.2310 536.0
511.8284 145.0
512.2317 174.0
512.8187 202.0
513.2476 1889.0
514.2509 558.0
515.8982 135.0
515.9193 347.0
516.9146 375.0
517.9108 190.0
521.6429 188.0
522.1407 157.0
523.3507 168.0
524.3658 138.0
525.2477 761.0
525.3717 182.0
526.2540 215.0
530.1436 163.0
532.8724 160.0
534.8977 290.0
535.8969 230.0
536.8996 576.0
537.9632 246.0
538.8863 124.0
538.9594 156.0
539.2638 246.0
543.3534 151.0
544.3582 158.0
545.9138 129.0
546.7712 1172.0
547.6820 113.0
547.7801 137.0
548.7711 345.0
551.3337 167.0
552.8776 262.0
553.8809 312.0
554.8778 179.0
555.9685 2506.0
556.9703 1037.0
557.9673 1807.0
558.9720 397.0
559.9542 590.0
561.8833 469.0
562.3879 225.0
562.8911 168.0
563.2640 182.0
563.6645 132.0
564.7786 198.0
565.8865 139.0
566.6457 210.0
566.7818 125.0
567.1404 270.0
567.2849 199.0
567.6477 184.0
570.3391 210.0
570.8535 178.0
571.3361 307.0
571.8637 244.0
572.3404 173.0
572.8583 160.0
572.8662 141.0
574.8527 373.0
579.2434 114.0
579.8747 286.0
580.8682 487.0
581.3119 214.0
581.3677 206.0
581.8585 159.0
582.2942 166.0
582.7476 143.0
584.7119 132.0
588.3236 204.0
589.3249 288.0
589.8381 200.0
590.3235 228.0
590.8378 146.0
593.9165 2586.0
594.9165 729.0
595.9215 1017.0
596.2978 182.0
596.9176 219.0
597.9057 402.0
598.8444 681.0
599.3525 236.0
599.8485 436.0
600.3479 164.0
600.7574 2781.0
600.8478 191.0
601.7597 470.0
602.7562 551.0
604.7597 261.0
607.2987 183.0
608.3066 163.0
610.3013 390.0
610.8202 203.0
611.2975 129.0
612.9879 2061.0
613.8582 158.0
613.9897 530.0
614.9906 536.0
615.8554 138.0
616.8350 331.0
616.9895 218.0
617.3297 153.0
617.8364 452.0
618.3183 155.0
618.8270 267.0
620.2762 968.0
620.3887 149.0
620.6913 172.0
621.2728 356.0
622.4014 150.0
622.6915 184.0
624.3137 443.0
624.8436 194.0
625.3235 177.0
629.8949 187.0
631.8687 484.0
632.9206 291.0
633.0779 109.0
633.9104 739.0
634.9098 193.0
635.2914 129.0
635.3294 149.0
635.8072 242.0
635.9137 153.0
636.8142 156.0
638.7027 321.0
638.8235 255.0
639.3198 230.0
644.8055 223.0
650.9270 11585.0
651.9378 2825.0
652.9269 2824.0
653.2684 124.0
653.3347 200.0
653.7971 216.0
653.9373 562.0
654.7851 153.0
654.9247 728.0
656.6683 219.0
658.6737 287.0
660.6758 111.0
662.7961 201.0
663.3242 153.0
663.8049 185.0
664.3019 147.0
664.8044 211.0
667.8319 317.0
669.8168 246.0
674.6435 132.0
675.1205 143.0
675.6196 116.0
681.3312 1036.0
681.7772 128.0
682.1752 195.0
682.3338 517.0
683.3308 107.0
683.8813 802.0
684.8812 426.0
685.7217 331.0
685.8780 560.0
686.2266 243.0
686.7351 126.0
686.9061 3837.0
687.9045 912.0
688.8917 3146.0
689.8944 705.0
690.8833 669.0
691.4171 193.0
691.7043 136.0
691.8929 175.0
692.7023 122.0
692.8663 272.0
694.3511 116.0
695.3527 292.0
696.3516 130.0
696.7632 122.0
699.7544 148.0
702.8606 937.0
703.3643 791.0
703.8086 183.0
703.8631 249.0
705.7949 450.0
707.7856 190.0
711.7717 112.0
712.2750 110.0
721.8232 704.0
722.8872 509.0
723.8098 233.0
724.8660 654.0
725.8046 111.0
725.8720 144.0
726.8588 228.0
740.7277 121.0
740.8978 1168.0
741.7597 343.0
741.8998 235.0
742.8908 245.0
743.7638 311.0
744.9080 117.0
748.5985 167.0
750.5952 164.0
757.8023 127.0
759.3951 158.0
759.7786 371.0
760.8393 346.0
761.7819 126.0
762.8380 305.0
764.8265 107.0
766.3175 106.0
778.8364 4799.0
779.8484 1116.0
780.8380 1211.0
781.8320 230.0
782.8469 357.0
783.3346 1169.0
784.3338 472.0
785.3343 143.0
794.4027 660.0
795.4142 335.0
795.4191 144.0
795.7410 576.0
797.7353 317.0
798.7868 133.0
814.8156 447.0
816.7913 1501.0
817.7931 378.0
818.8024 440.0
819.7985 139.0
820.7861 186.0
831.7268 114.0
833.6860 240.0
834.4424 109.0
843.4419 3090.0
843.9402 2903.0
844.4467 1561.0
844.9482 676.0
845.4456 227.0
852.7652 1714.0
853.7538 390.0
854.7651 902.0
855.7774 208.0
856.7633 387.0
858.7541 181.0
871.6753 110.0
882.3949 712.0
883.3939 406.0
887.6720 147.0
888.7440 322.0
889.7219 112.0
890.7062 433.0
892.7124 286.0
900.9554 366.0
901.4498 390.0
901.9672 166.0
903.5633 131.0
906.7460 301.0
908.7295 112.0
926.6831 425.0
928.6887 277.0
930.6759 139.0
942.7185 128.0
944.6933 1440.0
945.6881 246.0
946.6982 360.0
948.6823 156.0
956.4758 283.0
956.9655 246.0
957.4625 149.0
961.6107 160.0
964.9828 466.0
965.4793 591.0
965.9857 262.0
966.4624 143.0
980.6628 337.0
981.6704 117.0
982.6505 314.0
995.4833 514.0
996.4803 324.0
1014.5065 601.0
1015.0122 824.0
1015.5086 504.0
1016.0158 243.0
1018.6200 562.0
1019.6109 122.0
1020.6144 290.0
1054.5954 123.0
1064.5550 132.0
1066.5154 534.0
1067.5164 296.0
1090.5543 122.0
1091.0420 149.0
1091.5552 221.0
1092.5436 179.0
1099.5563 3092.0
1100.0560 3776.0
1100.5610 2588.0
1101.0624 1290.0
1101.5645 487.0
1110.5569 184.0
1179.5932 271.0
1276.6286 3319.0
1277.6329 2238.0
1278.6401 809.0
1278.6501 856.0
1279.6454 292.0
1404.7235 691.0
1405.7425 479.0
1406.7389 252.0
1685.8885 606.0
1686.8793 651.0
1686.8983 556.0
END IONS
BEGIN IONS
TITLE=Spectrum 1DFPIANGER_01.csv DRIFT_TIME=16.4366 16.0668 16.1296 15.9522 16.1348 16.3723 16.0212 16.3292 16.3657 16.299 16.1896 16.1564 16.1464 16.1072 16.4333 16.1523 16.3531 16.1059 16.0457 16.4886 16.1854 16.2811 16.2977 16.2125 17.9579 16.0404 16.0131 16.5339 16.2991 16.7011 16.0351 16.3732 16.2228 16.5265 16.1835 16.614 16.2637 16.5027 16.2424 16.5538 16.9455 16.5128 16.4427 16.504 16.5172 16.4946 16.6506 16.2569 16.4465 16.3097 16.2334 16.4799 16.4185 16.6821 16.5521 16.7076 16.8373 16.5955 16.9013 16.6262 16.8732 16.5744 16.4824 16.6092 16.7425 16.2777 16.6438 16.6755 17.2056 16.6546 16.8199 18.5099 16.7381 19.3351 16.7173 16.7993 17.8106 16.8006 17.6295 17.0892 17.4887 16.8521 16.8362 16.8052 17.021 17.0958 17.1398 16.8267 16.7905 18.158 18.2876 17.9338 17.8886 18.6295 17.5159 17.1394 17.8614 17.0721 17.1975 18.6513 17.5717 18.1964 17.5603 17.5171 17.2569 19.0292 17.2014 18.0792 18.1215 18.3299 18.4372 18.6563 17.9348 18.4628 18.5383 18.6872 17.5982 18.5492 17.2752 17.7869 17.382 17.4934 17.2737 17.5105 17.9576 18.5166 19.4338 18.8512 18.7492 18.8277 18.7924 18.7414 18.8859 18.4407 18.2679 18.2221 18.2693 19.0391 18.0341 18.6576 19.1025 18.3347 18.8041 19.0551 18.5764 16.5259 18.6705 16.8789 20.7183 19.1509 20.8341 19.4879 19.69 19.6526 16.2689 17.9569 20.7519 18.9054 19.0028 18.8734 18.9546 16.4157 18.8686 16.4758 16.4383 18.8662 19.9725 16.3481 20.0648 19.2964 24.4505 25.3642 17.1809 17.4485 20.5004 20.8615 18.6702 17.4445 18.0477 16.3858 18.7492 19.148 19.6988 19.6983 20.0398 19.107 19.6615 19.8557 19.297 19.4946 19.279 19.3982 19.5006 22.3458 22.1117 16.3585 17.9843 16.3841 19.8251 16.5005 19.7123 24.1029 20.7182 16.607 19.0377 20.5497 26.9279 21.364 22.4665 18.6781 20.4716 18.1457 18.6243 19.4691 20.0814 19.3812 16.6671 19.4312 19.6168 19.7082 19.2901 19.8789 24.8777 19.325 19.4094 16.7782 21.8069 16.3676 16.7568 16.3304 21.3988 16.3403 21.4441 16.5242 21.3296 18.7838 18.2625 24.3832 30.0549 22.7771 23.2063 29.8744 18.4899 20.173 22.2643 24.2363 30.4601 16.5366 22.3411 16.5088 23.5182 28.1852 16.4191 16.7044 23.7466 27.4421 16.5826 19.5965 22.5334 16.4745 22.7172 18.8848 16.2807 16.2563 24.0853 19.6772 24.1619 27.5235 19.7335 23.9838 19.5743 24.2862 18.6808 31.378601 23.1151 32.1553 18.3964 27.4747 19.0696 22.5149 26.5264 21.5972 21.4411 16.4699 21.6298 16.5379 21.4892 16.7473 21.4102 16.7099 21.3657 16.4888 19.9284 16.484 24.8378 16.4659 16.6108 25.366 20.288 17.2149 19.9555 16.5369 19.7271 28.5065 16.9932 29.1278 29.0623 15.9307 22.6192 16.4406 22.5504 22.5632 16.5646 16.2839 16.6806 16.663 22.9252 30.9679 20.086 30.828 20.2166 17.1079 20.5157 17.2257 17.341 20.1003 20.7806 18.713 21.2336 16.4809 18.9196 16.5461 16.4903 32.0891 32.5273 16.8403 16.9138 17.2671 33.6049 17.2109 17.1826 26.989 17.2021 16.6629 26.4873 31.624802 21.067 26.439 20.5531 26.5433 21.3119 26.0902 21.0267 26.4414 20.7284 17.1812 20.8692 16.8835 21.076 35.3372 34.6036 17.4362 25.6404 17.1667 17.5669 22.0875 18.0734 17.8971 16.4985 16.7867 16.5774 33.5019 32.9412 16.525 17.4927 27.1773 17.1822 17.4958 21.6956 27.1363 17.4345 17.2498 27.1788 18.0206 18.4786 27.1938 21.5594 26.8573 20.913 32.2196 17.4735 32.2868 17.9501 17.9596 17.7413 16.6199 17.6436 16.6102 17.6132 16.8416 36.5945 18.4538 18.2236 18.1321 17.6796 24.1456 30.3461 17.7073 17.718 23.944 17.7061 30.138 18.8294 29.5991 18.3411 39.4733 18.4784 16.7408 18.2431 39.2974 18.1356 19.732 19.2659 42.3266 42.0537 17.8769 17.7145 40.9887 17.5792 24.4062 16.3205 17.7016 16.6939 25.9906 19.6118 26.019 19.5616 19.3847 25.9455 18.3034 18.9418 22.6995 25.9244 19.2744 24.7596 18.7751 19.0283 24.7647 17.8746 17.9139 19.849 24.4392 17.921 18.3602 18.2522 18.0279 18.462 37.5353 20.2726 34.772 20.7936 20.8454 20.0649 19.7654 24.5747 26.7244 18.2951 18.8787 18.6372 18.7791 26.9946 18.7929 38.0728 20.6503 26.4568 20.6088 40.8703 20.696 20.3556 20.6263 27.0857 19.7201 19.5384 19.3671 19.0276 19.3154 39.3237 39.7386 19.5426 19.8518 19.9197 19.7871 34.1466 19.6941 19.8093 19.8028 19.5924 19.9938 20.6653 20.5375 20.0265 19.9286 20.0628 20.0199 27.9922 27.863 28.0202 38.606 18.6843 41.299 27.9152 40.9521 27.7741 40.9311 21.3566 21.1591 20.7842 20.4592 20.6183 20.7318 20.4289 20.6639 21.6887 22.8359 21.9001 21.8986 21.828 48.9659 21.3005 21.7931 22.7453 22.1849 47.0242 21.8656 29.0822 21.8862 21.5334 29.0605 21.5342 21.2762 29.2827 21.241 29.0166 47.1484 21.0763 20.7128 23.7725 23.2866 23.2427 22.5907 22.3763 22.6478 22.3892 22.6076 21.8565 21.1789 21.1976 21.3253 25.0633 44.5156 24.9635 51.64 69.2718 78.3511 24.1749 31.958199 23.6195 45.9292 50.1078 52.8794 29.742 23.59 32.017 23.5735 46.9565 23.1683 31.862602 23.2366 46.7062 52.0096 62.1432 22.2513 31.0136 22.6621 46.6802 62.7853 22.3722 31.283302 63.392303 46.2169 46.2961 46.3898 46.6357 48.2511 39.4897 51.3482 34.0533 51.6041 51.4097 33.935 51.7659 49.9901 48.5227 43.6891 59.4841 52.6559 59.7124 59.8349 59.8188 53.8634 54.8836 33.8293 62.319 61.5918 61.8489 62.9135 63.858 65.1735 65.206 64.2994 70.6629 31.626602 69.8454 70.053 72.2694 69.328 68.4604 34.0857 75.3138 78.4957 80.6284 83.9872 84.7375 86.6097 82.2471 78.174 77.831 77.6431 76.9445 76.7598 92.0995 102.3397 102.1087 104.0015 
PEPMASS=509.754
CHARGE=2+
102.9662 194.0
104.0699 1945.0
110.0690 3779.0
111.0731 700.0
112.0865 174.0
114.9513 479.0
116.0709 314.0
116.9479 489.0
116.9863 765.0
118.9454 595.0
120.0792 4029.0
121.0830 469.0
122.0798 4600.0
123.0840 279.0
124.9903 171.0
129.1014 1009.0
129.9629 1006.0
130.0638 1695.0
131.0634 243.0
132.9559 161.0
134.9597 180.0
136.0745 1062.0
136.9521 187.0
137.0804 225.0
141.0220 141.0
141.4591 429.0
144.0797 243.0
144.9625 169.0
147.1114 340.0
147.9713 223.0
150.4671 160.0
152.0022 686.0
154.1218 336.0
157.0040 383.0
158.0906 579.0
158.9775 469.0
159.0898 660.0
160.0261 941.0
160.0949 159.0
163.9996 378.0
166.8676 221.0
167.9949 259.0
169.0963 254.0
169.1296 185.0
170.0092 190.0
171.1488 242.0
171.9728 1707.0
172.0730 576.0
175.0838 1510.0
175.1170 1704.0
176.0833 255.0
178.0387 198.0
179.0946 228.0
182.0120 160.0
183.1473 2927.0
183.9723 301.0
184.0262 177.0
184.1515 456.0
185.9893 1137.0
187.9660 223.0
189.9816 399.0
190.0845 1532.0
191.0857 242.0
192.9647 420.0
194.9608 2788.0
195.0746 172.0
195.9635 644.0
196.9572 2225.0
197.9887 1076.0
200.0702 179.0
201.9821 1722.0
202.8893 367.0
202.9908 426.0
203.8877 146.0
203.9985 1294.0
204.1311 1027.0
204.8852 310.0
205.1359 327.0
210.0798 297.0
210.9792 171.0
211.1405 640.0
212.9701 891.0
213.9769 218.0
214.9685 599.0
215.9977 1045.0
217.0941 703.0
218.0801 433.0
218.9562 286.0
219.9772 421.0
220.8986 331.0
221.8983 462.0
222.8963 271.0
223.8870 377.0
226.0743 560.0
227.8782 136.0
227.9287 226.0
229.1171 161.0
231.0098 163.0
231.9754 2028.0
233.9498 312.0
235.1039 7524.0
235.9521 157.0
236.1078 1299.0
237.1104 186.0
239.1144 267.0
239.9319 229.0
241.8947 348.0
243.9262 180.0
243.9785 288.0
244.0869 212.0
245.0883 243.0
245.8951 5200.0
245.9902 191.0
246.8987 403.0
247.8928 2036.0
248.8955 143.0
249.0945 352.0
249.8888 284.0
249.9851 4204.0
250.0946 165.0
250.9919 518.0
251.9780 1008.0
252.9857 188.0
253.9793 426.0
255.0115 156.0
256.0834 343.0
257.1485 171.0
257.9363 600.0
258.0055 264.0
258.1450 261.0
258.8055 137.0
259.1435 187.0
259.9125 1015.0
261.9132 290.0
261.9888 450.0
262.9812 701.0
263.0934 188.0
263.9056 2788.0
264.0013 3867.0
264.9077 169.0
265.9042 1113.0
265.9308 1127.0
267.1038 484.0
267.9009 157.0
268.1073 267.0
268.9542 267.0
269.1196 160.0
269.8899 225.0
269.9260 271.0
270.1050 132.0
271.9225 217.0
271.9596 226.0
272.1259 170.0
273.1226 207.0
273.8945 181.0
273.9863 329.0
275.1179 155.0
275.1670 157.0
275.9052 5815.0
276.9130 618.0
277.9057 2562.0
278.4905 914.0
278.9060 187.0
278.9940 168.0
279.4887 196.0
279.9047 341.0
279.9490 505.0
280.4739 245.0
281.0978 357.0
281.9186 484.0
282.1338 218.0
282.1810 308.0
283.9074 4554.0
284.9104 280.0
285.1255 144.0
285.9163 387.0
286.7936 2993.0
286.8819 379.0
287.9381 2059.0
288.0334 208.0
288.7918 396.0
288.9978 1413.0
289.9214 3081.0
289.9873 512.0
290.9277 440.0
290.9929 467.0
291.9178 1234.0
291.9955 922.0
292.9876 159.0
293.9152 2265.0
294.8297 209.0
294.9224 289.0
295.9143 970.0
296.1488 333.0
297.1519 169.0
297.4650 678.0
297.9662 295.0
298.4581 200.0
298.9655 459.0
299.4482 243.0
299.9622 148.0
300.1523 133.0
300.9260 8290.0
301.4437 131.0
301.9246 919.0
302.9238 1006.0
303.1478 152.0
303.9266 169.0
304.1581 132.0
304.8047 2031.0
304.9164 304.0
305.9478 858.0
306.8034 287.0
307.0036 17331.0
307.9315 729.0
308.0099 2369.0
308.4493 252.0
309.0036 2617.0
309.9320 266.0
310.0069 209.0
311.0021 505.0
311.9280 140.0
312.1505 437.0
312.8367 288.0
313.8342 519.0
314.1577 120.0
314.9508 256.0
316.4419 600.0
316.9400 137.0
317.4488 250.0
318.9389 2812.0
319.8625 206.0
319.9404 217.0
320.4424 136.0
320.9324 283.0
322.8107 475.0
322.8745 447.0
323.1197 116.0
323.2235 2493.0
323.9102 955.0
324.1435 290.0
324.2267 779.0
324.8703 388.0
324.9752 194.0
325.0792 152.0
325.1462 189.0
325.2225 140.0
325.4413 159.0
325.8994 222.0
325.9748 1802.0
326.1427 151.0
326.1992 323.0
326.4771 267.0
326.9729 287.0
327.1356 173.0
328.1793 158.0
329.6239 135.0
331.8249 154.0
333.9425 138.0
334.4278 318.0
334.9411 449.0
335.8692 168.0
335.9474 162.0
336.4391 116.0
336.9034 2565.0
337.8295 4966.0
337.9085 268.0
338.1778 429.0
338.8320 329.0
338.9011 1365.0
339.8316 320.0
339.9066 150.0
340.8897 333.0
341.2330 818.0
341.9209 850.0
342.2355 221.0
342.8779 389.0
343.1567 212.0
343.8179 263.0
343.9182 270.0
344.1533 280.0
344.9497 37369.0
345.1308 166.0
345.4510 787.0
345.9568 7192.0
346.4474 290.0
346.9496 7176.0
347.4499 139.0
347.9567 929.0
348.4675 154.0
348.9477 2371.0
351.6311 137.0
351.8489 645.0
352.4144 404.0
353.0441 194.0
353.4107 259.0
353.9510 293.0
354.9154 252.0
355.8413 4458.0
356.1843 154.0
356.8409 260.0
356.9597 149.0
357.8444 322.0
360.1537 132.0
360.8850 117.0
361.1804 1460.0
362.1857 235.0
362.9294 139.0
362.9644 2338.0
363.9351 236.0
363.9705 279.0
364.9631 268.0
365.4240 426.0
365.8267 187.0
365.9270 153.0
366.4301 179.0
366.9594 119.0
367.1916 345.0
367.8415 4854.0
368.1916 238.0
368.8452 318.0
369.6852 201.0
369.8552 950.0
370.1814 410.0
370.6802 186.0
371.8284 192.0
373.8519 1864.0
374.6744 303.0
374.8594 108.0
374.9632 665.0
375.1742 156.0
375.4689 177.0
375.9579 220.0
376.1681 321.0
377.1735 272.0
377.6558 1585.0
378.1500 1230.0
378.6958 8552.0
379.1860 205.0
379.1928 5189.0
379.6950 1762.0
379.9787 489.0
380.1940 355.0
380.3952 185.0
380.9275 10756.0
381.1664 153.0
381.8581 3307.0
381.9319 1487.0
382.8582 239.0
382.9263 5733.0
383.8589 200.0
383.9303 739.0
384.8130 122.0
384.9255 1216.0
385.8526 3323.0
386.6438 195.0
386.8570 258.0
387.1413 261.0
387.8583 386.0
388.2516 178.0
389.2628 177.0
390.6613 393.0
390.9546 186.0
391.1614 323.0
391.6621 141.0
391.9120 544.0
392.1669 343.0
392.6718 196.0
393.4413 485.0
393.9337 217.0
394.4391 169.0
396.2179 167.0
397.2139 147.0
398.3815 283.0
398.6670 866.0
398.9397 3912.0
399.1623 838.0
399.6663 1519.0
399.8675 1519.0
399.9431 453.0
400.1624 1003.0
400.6656 349.0
400.9359 1984.0
401.1742 364.0
401.6646 166.0
401.9383 176.0
402.8220 240.0
402.9347 306.0
403.8647 426.0
404.1653 589.0
404.6627 170.0
405.1683 509.0
407.6700 4653.0
408.1729 2102.0
408.6711 709.0
408.9052 662.0
409.1592 301.0
409.3975 141.0
409.6633 181.0
409.9031 148.0
411.2468 104.0
411.6757 227.0
412.1711 204.0
412.6737 308.0
413.1668 336.0
415.8481 562.0
416.9047 543.0
417.1595 140.0
417.6513 240.0
417.8498 159.0
418.1609 154.0
418.9011 518.0
420.6792 1817.0
420.8997 139.0
421.1758 1298.0
421.2178 688.0
421.6805 1210.0
421.9560 342.0
422.1762 899.0
422.2152 177.0
422.6738 452.0
423.1904 223.0
423.6867 177.0
424.2121 450.0
425.2204 405.0
425.6705 181.0
426.1670 1117.0
426.2167 144.0
426.6613 900.0
426.8789 516.0
426.8961 270.0
427.1554 357.0
427.8888 263.0
428.8381 5721.0
429.6835 5026.0
429.8443 598.0
430.1841 2370.0
430.6838 800.0
430.8353 617.0
431.1715 286.0
431.6771 163.0
431.8201 127.0
432.8316 205.0
433.6853 201.0
433.8528 1004.0
434.1829 264.0
434.6788 305.0
434.8605 128.0
435.1713 957.0
435.6670 608.0
435.7557 405.0
435.8471 161.0
436.1681 276.0
438.6682 165.0
439.1692 384.0
439.6652 305.0
440.1596 152.0
441.1695 191.0
442.6917 1079.0
442.9223 462.0
443.1982 1055.0
443.7034 784.0
444.2007 364.0
444.6953 128.0
444.8918 352.0
446.8524 1036.0
447.1712 470.0
447.6664 993.0
448.1726 1194.0
448.6713 916.0
448.8428 149.0
449.1725 320.0
450.1592 249.0
451.6962 3267.0
451.8177 195.0
452.1958 1623.0
452.2209 119.0
452.7020 519.0
453.2092 160.0
453.7638 289.0
454.8596 153.0
456.1773 3441.0
456.6784 2035.0
457.1787 1756.0
457.6786 995.0
458.1812 428.0
458.1946 542.0
459.1993 169.0
460.1759 129.0
460.6742 280.0
461.1807 230.0
461.6747 154.0
463.0060 184.0
465.1818 4300.0
465.6854 2472.0
466.1865 753.0
466.6961 193.0
467.1840 170.0
469.1850 1277.0
469.6839 1174.0
470.1864 969.0
470.6834 571.0
471.1848 182.0
471.6890 137.0
472.8620 8619.0
473.8686 1106.0
474.8664 1123.0
475.0526 646.0
475.1912 181.0
475.2222 2131.0
475.8631 171.0
476.2189 665.0
476.8517 365.0
478.1592 117.0
478.1900 4483.0
478.6912 3181.0
479.1919 1687.0
479.6909 889.0
480.1927 469.0
480.6908 240.0
481.1951 251.0
482.2001 144.0
482.6872 161.0
486.7153 144.0
487.1939 6618.0
487.6979 3896.0
488.1994 1341.0
488.2758 129.0
488.6983 344.0
489.1932 266.0
489.7099 353.0
490.2049 426.0
490.2620 286.0
490.7066 174.0
490.8687 11016.0
491.1975 691.0
491.6942 703.0
491.8786 1515.0
492.1936 385.0
492.6979 149.0
492.8757 1503.0
494.1945 148.0
494.8731 508.0
496.2505 318.0
496.7098 106.0
497.2097 260.0
498.7279 317.0
499.2311 629.0
499.7350 298.0
500.2051 3105.0
500.7029 2137.0
501.2047 848.0
501.7065 312.0
502.2066 178.0
502.7130 201.0
503.2058 526.0
503.7039 361.0
506.2136 139.0
507.7292 1370.0
508.1544 158.0
508.2301 1853.0
508.3213 291.0
508.4678 145.0
508.5697 181.0
508.7360 586.0
508.8437 2315.0
509.2085 5776.0
509.2399 120.0
509.2521 109.0
509.3225 139.0
509.3529 150.0
509.7123 3248.0
509.8487 301.0
510.2122 1270.0
510.2472 307.0
510.7158 373.0
510.8402 1045.0
511.2084 274.0
511.2276 262.0
511.3384 444.0
511.3946 551.0
511.7167 333.0
511.8364 180.0
512.2126 825.0
512.2326 136.0
512.3928 190.0
512.7090 453.0
512.8442 197.0
513.4045 342.0
518.1567 210.0
528.2459 118.0
529.2336 416.0
530.2275 144.0
535.1786 300.0
536.9143 113.0
546.2542 10830.0
546.7891 218.0
547.2561 4208.0
548.2584 900.0
548.7903 126.0
549.2593 196.0
553.1955 332.0
554.1867 109.0
555.9842 324.0
556.3417 315.0
557.2245 209.0
557.3432 588.0
558.3478 637.0
559.3425 157.0
590.2543 139.0
591.2421 279.0
600.7842 254.0
610.2901 312.0
611.2910 576.0
612.2999 335.0
627.3115 111.0
642.3156 166.0
647.2552 229.0
648.2656 403.0
649.2654 241.0
659.3400 4763.0
659.7357 126.0
660.3406 1883.0
661.3315 527.0
669.3237 149.0
671.3886 138.0
672.3779 194.0
673.7303 201.0
739.3693 445.0
740.3725 214.0
743.4197 168.0
747.3535 189.0
748.3518 527.0
749.3105 142.0
749.3450 163.0
755.2621 112.0
756.3864 6849.0
757.3895 2828.0
758.3900 849.0
759.3886 158.0
858.4416 200.0
914.4548 168.0
915.4708 544.0
916.4689 311.0
END IONS
BEGIN IONS
TITLE=Spectrum 1DGPLTGTYR.csv DRIFT_TIME=17.4815 16.4741 16.8377 16.6403 19.1236 19.5589 17.081 16.8046 19.4156 18.9148 18.4435 17.1543 20.7802 22.0734 18.1014 20.4259 21.5154 22.0096 22.3662 17.9873 20.1655 21.4004 19.828 25.935 22.4085 24.0784 25.3506 26.1386 19.4917 22.1953 22.4179 21.7596 21.8085 25.1924 30.1446 26.0311 23.62 21.3098 34.1486 23.6391 22.3218 23.725 23.4907 34.146 30.1309 23.6524 23.4516 23.7197 24.0201 23.8247 24.2655 29.007 27.2344 23.4331 24.0696 17.0163 24.0342 38.1374 33.2087 38.6981 28.8362 27.6012 31.358002 39.0804 17.2714 29.1275 37.9343 18.0951 45.8334 36.222 36.6928 17.9846 35.5712 17.9416 45.1735 45.8578 26.4036 36.5379 48.4116 26.6764 37.0805 25.8206 51.9159 27.1996 30.9006 31.7266 32.8447 49.1334 33.3442 55.9181 33.1581 33.3601 61.8061 62.5847 66.0442 65.9995 77.4965 81.8288 81.3709 71.8209 70.052 67.9858 66.8373 89.1097 89.3022 89.1121 102.6378 103.9326 112.3397 117.1854 121.0644 121.7383 119.8557 151.2669 
PEPMASS=490.2485
CHARGE=2+
114.9965 168.0
122.0807 161.0
129.1018 170.0
130.0851 458.0
132.9617 634.0
134.9587 549.0
136.0764 165.0
147.1120 264.0
150.9726 207.0
152.9725 236.0
157.1340 142.0
159.0754 393.0
160.0282 365.0
166.8670 1585.0
175.1170 156.0
178.0401 216.0
183.1455 126.0
184.8781 262.0
185.1689 225.0
187.0710 258.0
195.8922 2512.0
203.9994 180.0
213.9052 1338.0
223.8864 2319.0
224.1025 131.0
224.8939 132.0
227.8823 123.0
229.1176 472.0
231.9186 261.0
241.8888 5309.0
242.9039 618.0
243.8987 199.0
245.8947 399.0
249.9868 461.0
251.9626 269.0
251.9826 151.0
259.8619 2761.0
259.9087 1606.0
260.1994 448.0
260.8700 299.0
260.9167 197.0
261.8575 2960.0
263.8616 293.0
269.9279 133.0
269.9780 148.0
277.8704 3233.0
278.8797 361.0
279.8688 3241.0
280.8791 145.0
281.8721 326.0
283.9112 149.0
286.7962 251.0
287.9409 652.0
295.8604 227.0
295.8939 721.0
297.4690 211.0
297.8855 1054.0
298.1419 159.0
300.0855 147.0
300.1559 282.0
304.8089 416.0
305.9532 789.0
307.0080 571.0
316.1521 182.0
316.4467 137.0
322.8220 309.0
323.9125 148.0
325.9804 398.0
328.1881 167.0
333.9408 184.0
341.9273 211.0
344.9524 446.0
344.9561 221.0
345.9484 155.0
347.2274 1103.0
348.2272 171.0
351.8024 991.0
351.9490 113.0
369.1717 167.0
369.8100 1717.0
379.8798 210.0
380.8349 139.0
387.1915 118.0
387.8237 720.0
395.2142 141.0
404.2139 156.0
408.8206 1485.0
409.0029 140.0
409.8278 154.0
415.1844 583.0
426.8331 1355.0
427.8404 220.0
462.2576 826.0
463.2603 221.0
484.2082 432.0
485.2049 133.0
487.3705 125.0
489.3085 324.0
490.3064 111.0
496.2561 563.0
497.2583 169.0
502.2212 588.0
503.2301 142.0
575.3421 417.0
597.2976 1094.0
598.3104 350.0
646.3780 508.0
647.3843 235.0
710.3846 365.0
711.3986 164.0
761.3965 1303.0
762.3987 535.0
763.4193 188.0
874.4816 494.0
END IONS
BEGIN IONS
TITLE=Spectrum 1EPISVSSQQMLK.csv DRIFT_TIME=15.956001 16.0413 16.063 15.976 16.1912 16.1036 16.2214 16.5056 16.2146 16.1891 16.1416 16.1904 16.2072 16.5419 16.2187 16.724 16.484 16.1887 16.7123 16.3742 16.5896 16.514 16.5196 16.4102 16.4382 17.2503 17.1039 16.5982 16.6831 16.7214 16.6928 16.7248 16.5497 16.2964 17.0038 16.7175 16.4215 17.056 18.6427 17.3752 17.0061 18.5871 18.7516 17.7808 17.111 17.9683 18.504 17.3742 18.9584 18.8646 18.9648 16.8903 21.8662 22.1669 17.0296 18.2031 16.9322 17.9541 19.6119 20.5139 20.5819 19.0502 21.2986 17.1434 24.731 19.8001 19.3502 18.7052 18.8721 18.564 19.0161 20.4654 20.1904 25.4793 25.1843 23.219 21.6638 25.7751 18.6785 23.3995 24.3028 18.1516 18.5879 19.4262 23.8821 19.3711 19.2967 34.0937 19.2125 19.4744 19.4256 19.1379 19.4984 24.7308 23.3053 26.2528 18.572 24.4205 22.7586 22.238 20.2124 16.2785 22.1505 20.8872 27.934 30.0332 22.8738 23.0048 18.7257 20.4643 26.6706 21.6601 21.3561 21.2861 17.3683 27.2768 22.3356 29.2269 22.229 22.2635 29.6344 22.685 16.5587 35.1185 32.5356 19.9077 22.7218 26.3736 16.2114 26.4961 31.446602 22.619 16.3184 31.645699 26.3343 22.9739 26.3982 26.4729 26.2236 25.7013 31.641502 32.3085 37.7795 32.4242 36.9801 31.3275 36.9214 16.692 16.4953 16.6054 23.2167 16.601 26.9049 16.4948 23.0506 16.1908 16.3247 27.0403 26.5835 26.4446 26.5549 20.1653 31.8252 33.0362 33.0677 18.6289 33.2436 20.5884 16.6506 24.2009 30.2095 16.3899 25.7036 16.4472 24.8609 16.5159 29.7375 29.6432 17.8105 38.654 29.5553 31.011002 16.7661 20.5923 16.4883 29.928 36.7608 35.741 16.6549 36.6397 36.5077 24.4162 24.57 16.5035 19.9119 24.434 16.6165 16.5583 16.6254 17.8162 34.4327 16.5507 22.1839 29.5596 36.4667 16.8091 42.1239 26.5207 24.0189 23.7851 31.556198 26.0352 31.993698 16.9462 16.8653 22.5876 16.9948 44.1086 43.8134 16.6954 49.0811 16.5729 49.3779 35.9613 18.5492 17.0703 26.611 16.9496 16.8474 17.0111 24.2815 24.2051 27.8234 24.3715 43.12 19.279 16.9343 17.0471 16.9675 17.1265 45.721 45.9515 17.0669 33.4912 33.1941 32.9966 43.9641 19.339 16.9928 17.4242 43.1801 24.8676 44.2172 28.8489 44.2616 43.8191 54.009 29.1714 54.2062 20.9193 24.3106 23.6497 17.6983 17.623 47.5512 17.2642 17.3022 38.8074 17.1121 38.8871 38.3005 54.1617 50.137 20.723 21.4034 23.9943 23.9201 16.9561 17.5465 21.5927 28.1202 30.6062 21.9286 47.9671 54.3316 20.9135 32.0264 21.523 32.525 32.1668 32.5592 22.03 17.9478 32.1994 21.17 27.6356 21.0885 27.6234 21.2221 31.155098 37.9074 54.1465 24.1099 54.5869 22.8116 38.0706 23.1464 22.739 23.171 22.9869 23.3458 17.8838 24.6486 24.2808 50.4935 23.3075 23.0116 23.2816 37.4174 23.2545 23.2569 23.2905 23.2823 23.2382 23.1199 23.3479 28.5568 23.9352 49.6757 47.9451 34.2415 48.8356 40.8715 52.3561 34.3259 29.7521 29.284 28.801 44.3517 23.7922 44.6301 43.891 44.0901 22.2206 21.9786 29.1625 28.103 52.2542 52.8141 59.4214 33.4521 23.3315 32.8577 33.6736 55.0022 59.7219 47.9248 44.6823 46.0134 56.0924 45.1087 56.7295 58.1084 28.2929 33.9776 28.1957 33.9541 33.1297 33.2395 28.0741 28.3329 28.5389 34.1732 28.8172 34.3011 34.1311 33.7622 47.9116 59.717 57.0971 28.7861 29.2379 28.5179 65.8221 48.2453 67.3043 34.9145 67.1892 67.5261 50.1402 38.3674 39.1349 67.5006 65.4018 33.5071 35.6837 34.4036 39.1642 39.4017 40.5644 75.4635 38.7892 39.8698 72.9985 40.0335 70.1469 40.1403 78.4012 90.8405 39.6478 78.9948 34.7749 76.9053 93.9259 36.2748 36.2919 70.9149 70.0305 52.6514 49.7197 75.1323 81.0873 81.0887 80.6447 77.7516 54.0804 83.7462 85.034 91.5172 87.6901 94.1323 93.3684 94.6413 93.9324 101.1297 114.0444 111.8778 112.6281 100.6577 116.2686 116.6358 116.0473 115.6199 136.4382 137.5005 138.5704 
PEPMASS=673.856
CHARGE=2+
101.0694 293.0
102.0530 730.0
104.0679 401.0
110.0688 441.0
114.0876 285.0
122.0786 1036.0
129.0989 401.0
129.9631 163.0
130.0836 1030.0
136.0737 190.0
147.1087 587.0
154.1221 336.0
159.1091 890.0
160.0262 565.0
171.1444 285.0
171.9726 489.0
173.1237 495.0
175.1150 177.0
178.0327 160.0
181.0929 2076.0
182.0977 205.0
183.1082 901.0
183.1459 717.0
184.1097 207.0
187.0985 214.0
195.9987 189.0
197.9929 188.0
199.1028 866.0
201.1207 259.0
201.9807 914.0
203.9929 339.0
209.0868 2910.0
210.0899 478.0
214.8834 386.0
215.9968 525.0
216.0937 199.0
216.8799 353.0
219.9892 195.0
223.1532 137.0
223.8870 314.0
227.0973 394.0
233.9473 1987.0
235.9449 573.0
240.0959 210.0
241.8955 521.0
245.8938 192.0
248.1573 311.0
249.9840 1579.0
251.9564 2188.0
253.9536 688.0
257.1191 160.0
259.8651 171.0
260.1898 1099.0
261.1989 161.0
261.8577 1015.0
262.9786 501.0
263.8527 277.0
264.9716 136.0
266.8935 150.0
269.9230 914.0
271.9194 529.0
274.1324 281.0
276.1660 143.0
279.8672 550.0
280.1593 203.0
284.8949 125.0
285.1139 150.0
286.7903 1040.0
287.9352 1469.0
288.7867 357.0
288.9925 597.0
289.9277 373.0
290.0169 253.0
294.1775 573.0
295.1746 141.0
298.1707 240.0
303.1213 113.0
304.1457 159.0
304.8009 766.0
305.1003 126.0
305.9012 147.0
305.9444 484.0
306.7944 218.0
306.9987 16178.0
307.8950 151.0
308.0054 3165.0
308.9995 3880.0
309.2695 123.0
310.0022 825.0
310.9980 1946.0
312.0010 271.0
312.9943 210.0
314.9937 133.0
319.0415 127.0
320.1471 146.0
322.1707 601.0
322.8167 186.0
323.1156 122.0
323.9050 1527.0
324.9097 126.0
325.8839 2035.0
325.9731 180.0
327.8930 162.0
338.9895 191.0
340.1808 341.0
341.2407 167.0
341.9170 1263.0
342.9180 174.0
343.8081 178.0
343.8923 3963.0
344.1575 226.0
344.9514 1304.0
346.9508 168.0
348.9389 148.0
351.7941 238.0
355.0169 386.0
361.8565 3994.0
362.1951 251.0
362.8730 277.0
363.8561 1581.0
364.1878 108.0
364.8596 117.0
365.4165 124.0
369.2723 212.0
373.1817 203.0
376.8281 112.0
379.8665 5031.0
379.9764 148.0
380.9208 153.0
380.9259 1210.0
381.2064 854.0
381.8636 1897.0
381.9251 159.0
382.2096 190.0
382.9253 545.0
383.8674 133.0
384.9202 257.0
385.9150 110.0
386.9138 169.0
390.9598 127.0
390.9983 179.0
391.1888 4027.0
391.2338 869.0
392.1938 1040.0
392.2349 219.0
393.1929 117.0
393.2302 119.0
393.9275 581.0
394.4334 130.0
397.6113 140.0
397.8791 646.0
398.3713 192.0
398.9378 434.0
399.3749 123.0
399.8707 293.0
399.8930 173.0
400.8949 149.0
400.9405 192.0
404.9768 1283.0
405.9747 316.0
406.9695 288.0
408.8153 364.0
409.0077 103.0
409.1986 2361.0
410.2029 578.0
411.1945 130.0
411.2068 111.0
412.8049 153.0
413.9335 127.0
415.8390 747.0
416.9009 458.0
417.3500 145.0
417.8329 156.0
417.8785 187.0
417.9297 1030.0
418.8746 242.0
418.8993 382.0
420.8952 122.0
422.6724 307.0
423.2308 126.0
424.8904 120.0
425.0026 137.0
426.3488 166.0
426.8297 151.0
426.8841 161.0
426.9298 176.0
427.2130 518.0
428.2165 143.0
430.3922 138.0
431.1776 531.0
432.1878 120.0
433.8490 1590.0
434.9154 546.0
435.3421 217.0
435.7446 383.0
435.8492 356.0
436.3373 145.0
436.8663 172.0
440.9261 184.0
444.6226 305.0
444.9815 160.0
445.8607 242.0
446.7912 139.0
446.9528 699.0
450.1493 397.0
450.4571 184.0
451.2190 308.0
451.8184 936.0
453.7960 2863.0
454.7973 191.0
454.8530 344.0
455.7994 184.0
456.8495 182.0
458.9082 358.0
459.9068 386.0
460.7327 184.0
460.9095 141.0
462.2641 1067.0
463.2735 347.0
463.8511 219.0
464.3315 609.0
464.8496 230.0
465.3365 248.0
466.0221 175.0
466.6509 201.0
469.4340 327.0
469.8314 225.0
469.9328 153.0
470.4288 190.0
471.4274 157.0
471.8019 5229.0
472.8104 240.0
472.8605 801.0
473.8038 134.0
475.1902 138.0
475.6493 277.0
477.8858 245.0
478.9690 832.0
479.4692 246.0
479.9693 303.0
480.2673 473.0
481.2788 155.0
482.8326 170.0
482.9292 686.0
483.9369 111.0
484.9158 196.0
486.2228 307.0
486.6319 136.0
487.4190 205.0
488.4225 144.0
489.2196 165.0
489.8122 1227.0
490.2546 1675.0
490.8707 1005.0
491.2572 502.0
492.2613 137.0
492.3630 3440.0
492.8625 123.0
493.3651 913.0
493.6734 159.0
495.2485 179.0
495.7441 136.0
496.9631 237.0
497.9450 276.0
498.2786 134.0
498.4411 170.0
498.9426 190.0
498.9585 374.0
499.9497 140.0
499.9533 157.0
500.9584 200.0
501.2702 154.0
502.2624 362.0
502.6697 333.0
503.1718 163.0
504.2500 164.0
504.7487 188.0
504.8775 129.0
506.4031 138.0
507.6749 203.0
507.7774 366.0
507.8960 121.0
508.1791 116.0
508.2664 310.0
508.2699 284.0
508.6725 298.0
508.8376 1716.0
509.1769 124.0
509.8495 180.0
510.8335 577.0
514.8303 229.0
515.6778 121.0
515.9258 120.0
516.8287 244.0
517.6775 1192.0
517.7648 489.0
518.1784 690.0
518.2668 378.0
518.6802 329.0
518.8427 156.0
518.9066 304.0
519.2889 907.0
520.1838 242.0
520.2901 341.0
520.7195 147.0
520.9026 171.0
523.1561 257.0
523.6554 156.0
524.6855 1098.0
525.1884 614.0
525.6924 261.0
527.9501 169.0
529.1847 144.0
530.1650 316.0
530.2439 128.0
530.6800 1246.0
531.1824 683.0
531.6930 262.0
536.9089 213.0
539.6842 14300.0
540.1878 9391.0
540.6933 3949.0
541.1918 1209.0
541.6878 1238.0
542.1912 574.0
542.6959 257.0
543.7453 125.0
544.7041 4282.0
545.1969 179.0
546.0830 193.0
546.7825 634.0
547.0589 215.0
548.0089 275.0
548.2701 248.0
548.7793 198.0
550.7695 146.0
551.2721 146.0
551.7836 141.0
555.9774 2583.0
556.2093 125.0
556.9792 568.0
557.9787 622.0
559.9822 124.0
560.2428 134.0
560.4865 124.0
560.7873 203.0
561.2827 103.0
562.2200 670.0
563.2043 166.0
564.3112 190.0
564.7949 107.0
567.7464 107.0
574.3079 423.0
574.8118 234.0
577.2935 228.0
588.2681 110.0
591.9570 332.0
593.9278 1001.0
594.9425 146.0
595.2946 562.0
595.9357 199.0
596.2994 237.0
599.2699 153.0
600.1950 128.0
600.3097 137.0
600.6885 130.0
600.7824 282.0
601.3013 155.0
601.7906 109.0
606.7270 388.0
607.2304 291.0
609.1950 202.0
609.3132 1684.0
609.6967 263.0
609.8119 1197.0
610.3175 614.0
610.8123 197.0
613.0000 254.0
613.3057 115.0
617.2758 186.0
620.7235 1094.0
621.2250 699.0
621.7195 161.0
629.3351 144.0
629.9052 156.0
630.3201 261.0
638.7213 124.0
647.3354 681.0
648.3459 255.0
650.9495 409.0
655.8205 125.0
656.3295 183.0
658.2841 134.0
661.2849 131.0
663.2078 218.0
663.2783 169.0
663.7627 126.0
665.3310 228.0
665.8388 236.0
666.3456 132.0
673.3919 540.0
673.8358 858.0
674.3416 2816.0
674.3908 180.0
674.8418 2230.0
675.2981 348.0
675.3446 961.0
675.3598 263.0
675.5140 143.0
675.8396 312.0
676.3750 128.0
677.2636 226.0
677.4652 185.0
677.5287 229.0
677.8618 280.0
678.3685 182.0
685.3328 261.0
686.3300 124.0
686.9190 138.0
721.8302 247.0
730.3268 168.0
734.3710 1784.0
735.3720 747.0
736.3756 278.0
748.3016 192.0
778.8708 159.0
784.3902 214.0
785.3790 153.0
803.3945 176.0
804.3785 314.0
821.3935 6499.0
822.3987 3440.0
823.4051 1146.0
824.4001 418.0
897.4661 209.0
920.4645 1465.0
921.4676 948.0
922.4600 352.0
938.4459 136.0
1007.4916 3506.0
1008.4946 2212.0
1009.4969 974.0
1010.4975 300.0
1120.5810 632.0
1121.5838 519.0
1122.5828 272.0
END IONS
BEGIN IONS
TITLE=Spectrum 1HNGPEHWHK.csv DRIFT_TIME=15.9293 16.0083 16.0215 16.0648 16.4228 16.1752 16.4725 16.0584 16.0357 16.2186 16.1514 16.1295 16.378 16.1793 16.5028 16.176 16.7438 16.0942 16.1802 16.2855 16.0236 16.3809 16.8613 16.6761 16.3176 16.6511 16.7613 16.2096 16.3428 16.3951 16.2529 16.3909 16.262 16.4808 16.6467 16.7962 16.237 16.6376 16.8029 16.4934 16.4826 16.6778 16.252 16.9224 16.3701 16.9194 18.3993 16.7795 18.4617 16.8003 16.5777 17.1885 16.9182 17.5392 16.7867 18.136 16.6518 16.1589 17.3155 16.7004 16.8713 16.7098 16.3729 17.9162 16.3694 16.9318 16.9265 17.0396 17.0806 17.0398 17.3049 18.0461 17.728 17.139 16.992 16.9399 16.8438 16.5431 17.1266 17.0544 18.0974 17.2828 18.3204 17.155 17.3427 16.2111 16.9613 18.9377 17.4546 17.4245 17.0735 17.6057 17.1922 19.7878 16.8319 17.4835 18.4072 17.96 18.4332 17.5482 18.4095 17.4172 17.3431 19.7604 17.3228 17.9465 17.4363 17.9497 17.5632 17.5989 19.8758 17.1165 17.4722 21.9958 17.2512 18.2666 22.0372 18.1648 18.765 19.7994 17.6809 16.5737 18.9439 18.2949 16.578 19.4555 16.3844 18.6142 17.4045 20.5496 20.7576 18.61 18.0679 18.6987 19.2475 20.5024 19.3459 20.7879 18.2284 19.5984 22.786 22.8292 16.3149 20.5036 22.1771 18.5908 18.1294 19.5575 19.4416 19.5721 19.4099 19.3346 19.2907 19.6901 19.9882 19.6435 19.2465 19.8793 19.3615 21.7097 19.455 16.464 16.6968 16.2538 18.7773 22.8084 23.6775 22.7911 18.3981 16.5888 22.9223 16.5082 16.5323 16.8196 29.0194 16.8664 19.3287 19.5448 16.51 22.8002 19.2744 16.5928 23.6426 19.6889 23.0092 25.8947 18.6038 22.7253 16.7544 16.595 18.6341 23.1087 21.5542 27.6083 16.4951 21.3575 16.4804 21.6366 28.5763 21.9197 31.5102 17.7182 23.4182 16.554 17.5155 16.6207 18.5087 16.5599 16.4925 18.4261 18.6587 19.0889 24.0117 28.6692 16.5624 22.8787 28.9898 16.373 34.2431 16.5076 16.6389 16.5378 20.6281 17.7956 20.5729 17.3023 23.9732 16.6675 16.5313 34.2589 16.6316 16.6289 16.4415 21.0228 21.342 21.7443 16.575 15.276001 26.4839 16.5407 16.4862 26.6818 16.7665 16.3466 26.5838 38.2738 16.5079 16.4797 26.1665 26.612 26.1463 20.4194 25.1458 40.2241 23.5088 17.8395 40.7511 20.9445 35.1364 16.4665 22.2676 29.537 18.6984 16.6794 18.9278 16.8099 21.1056 16.5796 19.2588 16.2883 27.0799 16.4827 27.0637 27.3387 23.8846 16.6335 26.8973 35.0453 25.7089 20.7331 27.6497 19.8144 38.5188 19.7234 38.2893 20.4828 16.478 32.1047 32.0511 31.947601 16.6615 24.7819 18.267 24.0122 29.9541 39.1191 24.3346 29.9983 30.1842 28.7213 30.7457 16.3761 33.115 16.5201 29.7724 20.9869 31.1656 20.6907 16.5864 16.6919 16.7066 16.7258 25.1374 16.6713 16.7398 18.9786 16.8079 18.8358 18.0593 24.663 39.0257 24.8868 37.2432 24.6244 57.4521 18.952 36.9055 16.6917 20.2334 20.2505 31.8741 32.7481 33.1583 21.1703 32.2386 32.9124 16.5697 33.4041 19.5181 16.4734 33.1873 18.9648 16.4916 33.1877 24.3425 17.5948 24.9411 16.7516 19.7793 16.7913 18.9542 16.7526 26.4094 16.7282 38.3341 42.7128 16.7353 26.311 16.861 16.8449 26.4182 61.1606 32.2462 25.1464 26.1184 35.4409 17.0556 27.0094 42.7803 17.5684 17.207 43.2384 17.0102 26.6226 28.0959 28.3198 27.4339 21.8964 21.0678 20.7649 19.3785 18.8558 19.0808 17.1377 16.9592 16.9808 16.9586 36.755 17.0549 21.9096 21.8475 22.206 21.8456 20.1694 21.8136 50.4968 51.2233 21.1786 20.4683 47.1263 28.9801 28.881 28.7929 22.5827 22.192 22.5862 35.7667 17.7501 17.4004 36.1604 21.6058 17.6635 21.8018 17.3772 38.2731 21.4677 17.1906 21.3855 17.3108 38.5665 38.3778 40.3657 23.2428 38.2921 40.9964 23.0821 23.2916 22.1481 56.0156 22.167 22.9276 55.6387 22.8298 22.7707 31.889297 23.5503 23.4406 31.707703 32.1853 32.3077 37.0922 22.7707 37.0412 17.5969 52.4869 17.5766 17.8467 21.4505 27.4599 42.3588 27.5061 27.6159 33.6487 49.2919 24.4212 23.5991 27.6721 27.8785 45.8512 46.2046 46.487 41.1331 44.7685 21.6882 43.9867 22.8821 35.3878 35.1178 41.3588 52.0217 35.466 42.2015 24.2702 24.1362 55.0705 52.7522 34.2699 53.0768 26.483 34.141 26.8052 53.04 26.6851 26.244 22.9036 25.0643 26.6094 43.692 44.0355 24.5269 24.5698 25.2886 24.2158 28.1085 32.2064 28.3987 27.294 26.8577 59.3793 26.9562 26.289 59.4728 29.1559 28.9563 29.092 59.8102 29.1541 28.7263 28.8457 33.1063 32.1962 25.481 25.4434 56.0986 50.8357 29.1844 69.537 73.1374 25.5598 29.4686 26.8599 28.9781 29.5712 28.1417 54.5043 64.1387 72.0671 29.5176 27.9804 29.0502 43.6372 28.0024 63.843597 28.1479 26.388 59.2162 27.7714 61.471 31.6335 67.3338 27.4015 43.0832 57.9605 26.9378 33.023 59.3985 27.1804 32.8208 46.4931 32.9484 59.7166 63.786804 32.895 52.2269 33.354 33.0509 28.4992 28.1784 32.2551 26.2284 26.4329 45.6904 45.9713 45.0588 27.9751 27.8753 45.2329 29.4725 29.5873 29.8906 33.1662 28.1551 28.2983 30.3895 28.8699 53.2127 61.7422 53.7636 61.4998 28.9692 29.659 48.1165 60.0206 29.2969 29.1353 63.7546 35.0395 48.7212 33.5055 34.3463 34.1726 34.5815 67.1756 30.444 30.8094 36.6124 35.9959 61.4727 31.279198 31.243202 31.0321 31.419899 32.4537 34.0356 34.826 33.1308 49.9491 32.0226 50.6327 49.8987 59.7328 33.8359 34.4815 31.298798 31.2663 31.4762 74.9025 34.822 34.8829 74.9294 34.4807 74.8099 32.7614 32.5903 33.0432 39.4821 38.7789 36.5983 61.8083 35.1645 61.3038 33.9377 33.9467 40.3458 33.9361 40.1965 33.8177 40.2955 34.1306 73.0748 35.2414 73.0697 35.7155 34.2569 36.8739 36.8879 36.7657 71.1133 70.7665 52.4378 25.8186 25.3795 25.7996 52.4419 39.0956 37.4149 37.7855 37.062 44.8015 43.874 44.2402 26.9495 27.3441 27.0462 27.1624 38.3095 38.1398 38.6635 38.4445 45.3009 45.4976 45.4606 45.7824 40.0026 39.8165 39.8204 39.9805 40.3219 39.9389 40.9917 41.1307 38.8657 67.4407 39.0109 39.3919 40.8603 40.6585 40.578 40.3797 40.629 40.1348 40.8012 41.1571 40.9916 40.9781 48.5236 47.7283 40.4897 40.5731 42.3739 42.1048 68.7665 40.9359 68.0171 42.3165 42.2944 42.3868 42.593 41.6085 42.015 41.9605 42.0018 42.7609 86.1925 75.9659 84.9415 43.9807 43.9613 43.8936 43.7699 43.9618 44.0059 44.2482 49.9921 51.3535 51.8453 52.0948 46.9646 84.7942 83.9323 53.3241 53.339 53.201 45.5339 53.0262 45.9518 45.9386 49.9346 49.9122 49.9859 48.4495 49.3968 47.5372 47.7156 46.1484 88.997 48.3483 48.3765 48.4412 48.6521 49.0875 83.6941 83.7551 85.7231 85.6198 80.1984 84.3213 84.4801 87.0353 89.6163 95.9951 97.5092 95.4183 56.5773 55.3166 55.207 100.694 105.1613 104.1203 108.8176 109.8464 106.8669 110.0726 107.5164 125.7581 
PEPMASS=571.271
CHARGE=2+
101.1041 145.0
102.9681 155.0
104.0693 722.0
110.0706 6776.0
110.9730 322.0
111.0710 561.0
112.9888 210.0
115.0214 198.0
119.0471 457.0
120.0788 3539.0
121.0830 414.0
122.0802 1884.0
124.9894 348.0
129.0997 1970.0
129.9629 1708.0
130.0842 1246.0
130.8915 209.0
132.0769 211.0
136.0738 2975.0
137.0764 345.0
141.4585 2409.0
141.9638 278.0
143.9773 211.0
144.9614 252.0
147.1111 719.0
147.9722 349.0
148.9025 219.0
150.4637 1062.0
154.1239 274.0
155.0915 183.0
156.0728 301.0
157.0946 601.0
159.0882 840.0
160.0269 623.0
160.8989 232.0
161.9874 394.0
162.0658 160.0
164.0003 279.0
166.8673 863.0
167.9937 1152.0
171.1465 285.0
171.9706 5281.0
175.1162 318.0
176.8917 664.0
178.0484 379.0
183.9715 1317.0
184.8316 326.0
185.9884 323.0
186.8268 353.0
189.9819 1212.0
195.8923 279.0
197.9862 1426.0
199.9951 195.0
200.8493 362.0
201.9800 10775.0
202.8465 211.0
203.9961 4854.0
204.4093 148.0
204.8825 8481.0
204.9990 371.0
205.9591 631.0
207.0844 1007.0
210.0219 238.0
210.0744 185.0
213.9126 785.0
214.9531 246.0
215.9954 5285.0
218.0123 1125.0
218.9529 1553.0
219.9881 1348.0
222.8953 3328.0
223.1527 275.0
223.8860 1554.0
224.1104 672.0
224.8931 802.0
225.1135 144.0
226.9433 188.0
228.9270 132.0
228.9928 642.0
230.0110 345.0
230.1416 177.0
231.0069 1252.0
231.1465 285.0
231.9765 842.0
232.9649 488.0
233.9234 181.0
234.0050 328.0
234.1161 177.0
234.9856 806.0
235.0797 838.0
236.9647 203.0
240.9049 374.0
241.8966 1936.0
242.1829 147.0
242.9034 456.0
243.0080 400.0
245.8956 194.0
246.9832 281.0
247.1411 448.0
247.9691 833.0
248.1540 740.0
249.9822 16507.0
250.9881 2221.0
251.1470 479.0
251.9812 2570.0
252.1068 2330.0
252.9843 190.0
253.1021 597.0
253.9775 517.0
255.0073 397.0
256.1632 267.0
257.9765 591.0
259.9104 252.0
260.1931 1495.0
260.9566 266.0
261.0177 161.0
261.1970 252.0
262.9787 6837.0
263.9063 142.0
266.1583 871.0
267.9947 588.0
268.9560 148.0
270.9842 552.0
273.0166 834.0
273.8948 289.0
274.1532 167.0
274.8924 194.0
275.9076 206.0
277.8665 138.0
284.1678 2380.0
285.1722 432.0
286.7933 559.0
287.9375 1885.0
288.7908 165.0
288.9934 7714.0
289.9856 524.0
290.9953 296.0
291.1184 348.0
291.9155 168.0
291.9954 216.0
292.1647 126.0
296.1442 253.0
297.4650 206.0
300.9260 166.0
304.1601 359.0
304.8049 308.0
305.9484 815.0
307.0024 65735.0
307.1738 3807.0
307.2585 684.0
307.3695 1025.0
307.4226 6034.0
307.4818 5583.0
307.7642 363.0
307.9079 337.0
308.0098 1009.0
308.1367 442.0
308.2801 263.0
308.9998 1691.0
309.1316 304.0
311.0007 372.0
316.4388 492.0
316.9379 135.0
317.4385 160.0
322.9823 860.0
323.9070 3121.0
324.1396 542.0
324.9146 251.0
324.9811 513.0
325.4433 145.0
325.9043 1166.0
325.9754 638.0
326.4752 143.0
326.9704 183.0
330.1895 161.0
331.7077 372.0
332.8403 151.0
333.7885 452.0
334.4304 296.0
334.9463 103.0
335.7787 267.0
336.6411 119.0
336.9077 242.0
337.8341 115.0
341.9193 2629.0
342.1493 131.0
342.8627 540.0
342.9239 159.0
343.1654 292.0
343.4308 123.0
343.8146 525.0
343.9152 921.0
344.9517 3347.0
345.1727 135.0
345.4468 212.0
345.9546 320.0
346.4516 128.0
346.9490 391.0
347.2231 133.0
348.9493 174.0
350.2159 174.0
351.7929 8852.0
351.9031 258.0
352.4130 433.0
352.8060 235.0
353.4109 321.0
353.8424 1073.0
354.4128 164.0
356.9522 140.0
360.8711 161.0
360.9784 407.0
361.8244 236.0
361.8738 147.0
362.2012 623.0
362.9400 294.0
362.9676 136.0
363.2000 179.0
363.9319 294.0
364.2310 160.0
364.4333 124.0
364.9351 253.0
365.4228 285.0
368.7010 912.0
369.8057 6161.0
370.6953 368.0
370.8092 158.0
371.7548 114.0
373.5882 142.0
374.9599 1604.0
375.2319 187.0
375.4636 396.0
375.9592 416.0
376.9551 148.0
377.8952 3129.0
378.8954 288.0
379.8925 430.0
380.3885 199.0
380.9171 218.0
380.9260 7958.0
381.4212 179.0
381.9192 750.0
381.9336 817.0
382.4194 253.0
382.9213 587.0
382.9254 1597.0
383.2829 175.0
383.4195 245.0
383.9181 222.0
383.9292 177.0
384.9233 268.0
385.8638 161.0
386.7104 598.0
387.0039 249.0
387.2374 529.0
387.7698 183.0
387.8185 839.0
388.2355 152.0
388.7051 232.0
389.2166 126.0
389.3955 170.0
389.8217 152.0
391.0024 124.0
393.2102 290.0
393.4416 199.0
393.7096 132.0
393.9383 191.0
395.9049 394.0
398.3785 646.0
398.6924 223.0
398.8797 128.0
398.9386 2643.0
399.3795 431.0
399.9390 287.0
400.9358 498.0
401.8953 124.0
401.9734 198.0
402.9268 133.0
403.2324 194.0
403.8668 165.0
404.7125 251.0
406.9700 160.0
407.2083 551.0
407.2596 2090.0
407.7099 361.0
408.2654 474.0
408.8176 1116.0
408.9029 211.0
409.0000 9888.0
410.0088 1178.0
411.0014 1043.0
411.4209 161.0
413.0001 277.0
415.6738 177.0
415.8439 2023.0
416.9021 10619.0
417.2414 221.0
417.8365 154.0
417.9084 1131.0
418.9008 1306.0
419.9065 144.0
420.9446 306.0
420.9459 134.0
421.1826 117.0
421.9522 188.0
424.9206 322.0
425.7185 271.0
425.9802 213.0
426.8298 382.0
426.8897 518.0
427.3931 210.0
427.8861 841.0
428.3887 316.0
428.8344 123.0
428.8856 450.0
429.3820 178.0
429.6778 321.0
429.8896 238.0
430.1664 137.0
433.6772 134.0
433.8507 3924.0
434.2278 154.0
434.8580 310.0
435.1822 188.0
435.8578 343.0
436.4060 546.0
436.7696 130.0
438.1816 120.0
439.9400 152.0
440.7224 434.0
441.2238 134.0
441.9400 808.0
442.9248 1197.0
443.0054 2575.0
443.7346 272.0
443.9364 598.0
444.0111 480.0
444.3503 205.0
444.9915 1274.0
445.7102 242.0
445.8612 191.0
445.9932 196.0
446.2065 140.0
446.8562 160.0
446.9886 551.0
449.2401 180.0
449.4965 132.0
449.7495 150.0
450.4599 539.0
450.7038 302.0
450.9610 306.0
451.1995 145.0
451.4606 557.0
451.8182 3426.0
451.9644 187.0
452.1058 135.0
452.2348 117.0
452.4600 326.0
452.8270 340.0
452.9643 159.0
453.4619 131.0
453.8139 1195.0
454.4197 228.0
456.8490 157.0
463.7464 218.0
464.2528 156.0
466.0285 474.0
469.4416 179.0
469.8275 779.0
470.2418 888.0
470.4571 195.0
470.9517 150.0
471.2535 216.0
471.4431 163.0
471.8195 246.0
472.8611 649.0
473.8686 124.0
474.8637 145.0
475.1958 202.0
475.6926 335.0
476.1931 246.0
477.6768 241.0
477.8512 215.0
478.1796 294.0
478.9734 1361.0
479.4769 523.0
479.9717 832.0
480.4696 337.0
480.9549 132.0
480.9720 474.0
484.2071 1588.0
484.7070 1134.0
485.2038 549.0
485.7057 247.0
486.1931 175.0
487.1949 152.0
488.3227 229.0
489.3116 108.0
489.6913 345.0
490.1935 192.0
490.2577 203.0
490.8733 1011.0
491.8777 145.0
492.8627 135.0
493.7137 194.0
494.2120 332.0
494.7219 180.0
496.9454 1137.0
496.9630 148.0
497.9470 1188.0
497.9491 336.0
498.2041 1527.0
498.4404 496.0
498.7015 1216.0
498.9459 641.0
498.9595 5443.0
499.2051 565.0
499.4465 162.0
499.7012 213.0
499.9479 248.0
499.9665 1024.0
500.9586 1239.0
501.9987 1764.0
502.7285 1194.0
502.9658 250.0
503.0099 201.0
503.2274 720.0
503.7297 303.0
506.2142 423.0
506.3276 625.0
506.7226 252.0
507.2104 1649.0
507.3210 202.0
507.7091 1263.0
508.2064 476.0
508.8407 728.0
509.2087 472.0
509.7077 196.0
509.8456 122.0
510.8379 713.0
512.8303 199.0
513.9259 697.0
514.7022 170.0
515.9230 169.0
515.9322 291.0
516.3128 156.0
516.4297 138.0
516.9330 220.0
517.6613 202.0
517.7717 844.0
518.1961 201.0
518.2700 523.0
518.7711 152.0
518.8866 121.0
522.2703 224.0
525.2083 207.0
525.7050 150.0
530.3281 187.0
530.8228 117.0
532.0756 254.0
533.0801 137.0
534.0699 185.0
534.9357 566.0
535.2154 598.0
535.6672 325.0
536.2172 159.0
536.7292 1449.0
536.9126 5843.0
537.9215 689.0
537.9775 993.0
538.2816 368.0
538.9087 538.0
538.9751 149.0
539.1869 374.0
539.6960 185.0
543.2913 135.0
546.2560 140.0
546.7880 270.0
548.2723 843.0
548.7299 371.0
548.7835 159.0
549.2372 312.0
549.2825 287.0
553.7373 833.0
554.2405 514.0
554.5061 122.0
554.7351 378.0
555.2323 137.0
555.9893 184.0
558.0253 370.0
558.7626 351.0
559.0087 325.0
559.2625 239.0
559.5117 144.0
559.6108 116.0
560.6137 170.0
562.2492 1778.0
562.7432 3274.0
563.2454 2067.0
563.3473 5481.0
563.7439 786.0
564.2300 255.0
564.3512 1877.0
564.6204 130.0
564.9506 976.0
565.2846 1091.0
565.3496 456.0
565.6210 537.0
565.9534 229.0
566.2952 116.0
567.8153 135.0
568.3103 110.0
569.7663 496.0
570.0145 398.0
570.2938 328.0
570.3030 427.0
570.3114 537.0
570.4379 138.0
570.4854 148.0
570.5171 129.0
570.6256 1793.0
570.7649 234.0
570.8251 384.0
570.9612 1909.0
571.2501 13157.0
571.2922 329.0
571.3471 879.0
571.4411 123.0
571.6265 415.0
571.7550 10699.0
571.9624 207.0
571.9674 124.0
572.2558 5618.0
572.3492 352.0
572.7575 1894.0
573.0198 188.0
573.1604 345.0
573.2624 526.0
573.3527 130.0
573.3640 189.0
573.4110 145.0
573.7370 301.0
573.9491 177.0
574.1586 113.0
574.2283 320.0
574.3103 1085.0
574.3471 321.0
574.7221 162.0
574.8149 716.0
575.0573 1743.0
575.2946 1067.0
575.3329 1371.0
575.3993 759.0
575.6249 532.0
579.2586 137.0
581.8121 213.0
582.3083 162.0
584.2391 225.0
584.7423 135.0
586.2936 141.0
592.2064 245.0
592.7062 123.0
593.9298 515.0
594.9224 150.0
595.9315 249.0
596.2274 469.0
596.7241 264.0
597.9227 145.0
598.2411 588.0
598.7457 398.0
599.2500 148.0
600.7716 257.0
606.2201 210.0
606.7150 153.0
606.7449 159.0
607.2328 159.0
607.2525 249.0
607.2976 437.0
608.2507 149.0
608.3061 159.0
609.2348 255.0
609.7292 225.0
613.0068 253.0
620.2879 112.0
620.7329 339.0
621.2269 238.0
627.3087 116.0
627.8195 106.0
631.9094 146.0
633.7829 221.0
634.2775 153.0
634.7489 356.0
635.2466 212.0
635.3508 132.0
636.2228 209.0
636.7121 165.0
638.8377 215.0
639.3261 182.0
644.2898 174.0
645.2248 1587.0
645.7284 1027.0
646.2264 536.0
646.7237 136.0
647.2323 129.0
647.7619 204.0
648.2703 155.0
648.7401 147.0
650.9518 380.0
651.7279 187.0
651.9424 119.0
652.9477 173.0
655.2627 161.0
655.7495 206.0
656.2505 157.0
659.7377 944.0
660.2420 891.0
660.7416 311.0
662.4124 3322.0
662.7493 113.0
663.2648 159.0
663.4168 1458.0
663.7720 119.0
664.4227 344.0
664.7404 226.0
665.2429 201.0
665.7198 151.0
667.8178 126.0
668.3181 112.0
670.2664 143.0
672.2777 936.0
673.2459 155.0
673.2764 327.0
673.7349 3867.0
674.2370 3042.0
674.3466 574.0
674.7386 1227.0
674.8477 460.0
675.2372 457.0
675.3489 214.0
675.7342 201.0
676.3591 336.0
677.2760 212.0
677.3624 145.0
677.7797 140.0
678.2587 103.0
684.2660 285.0
684.7698 258.0
685.2705 128.0
685.3314 997.0
686.3401 367.0
686.9174 137.0
687.9814 223.0
688.3170 171.0
688.6436 119.0
688.9164 190.0
694.2651 137.0
698.2641 279.0
698.7695 253.0
699.2687 123.0
700.8549 166.0
701.3556 201.0
701.8518 136.0
702.3183 103.0
702.6601 322.0
702.9893 259.0
703.3214 183.0
707.2726 327.0
707.7667 377.0
708.2746 396.0
708.7708 164.0
709.8633 1951.0
710.3631 1730.0
710.8646 783.0
711.3688 282.0
716.2787 4533.0
716.7788 3438.0
717.2830 1551.0
717.7859 528.0
718.2794 257.0
718.7768 144.0
719.8098 214.0
720.3042 168.0
721.2740 268.0
721.2982 218.0
721.7753 352.0
722.2666 180.0
729.7846 538.0
730.2756 4521.0
730.7774 3598.0
731.2811 1618.0
731.7792 548.0
732.2889 211.0
733.8063 395.0
734.2965 259.0
734.7957 223.0
735.2820 148.0
738.3852 257.0
738.8945 208.0
742.8025 139.0
743.2848 291.0
743.7892 467.0
744.2931 342.0
744.2979 136.0
744.7942 122.0
745.3221 146.0
751.7937 3682.0
752.2976 2839.0
752.7997 1296.0
753.3011 541.0
753.8038 260.0
756.7869 343.0
757.2879 511.0
757.7868 381.0
758.2888 172.0
761.4813 447.0
762.3243 127.0
762.4853 306.0
765.7903 8334.0
766.2930 6796.0
766.7970 3491.0
767.3007 1258.0
767.7936 611.0
768.3041 265.0
768.7941 145.0
773.8952 259.0
774.4087 178.0
774.9121 116.0
782.8810 223.0
783.3671 114.0
784.3914 563.0
785.4017 306.0
791.3935 2002.0
791.8942 1831.0
792.3939 1065.0
792.8142 133.0
792.8943 373.0
793.3165 131.0
798.3019 117.0
801.3269 1262.0
801.8307 1201.0
802.3327 590.0
802.8333 240.0
803.3299 120.0
806.2994 152.0
806.8095 265.0
807.3248 175.0
813.4010 145.0
815.3248 2252.0
815.8269 2137.0
816.3275 1046.0
816.8361 480.0
817.3322 192.0
830.3499 379.0
831.3515 204.0
833.3906 415.0
834.3925 221.0
841.3321 132.0
858.3568 963.0
859.3494 577.0
860.3622 190.0
876.3639 138.0
890.4073 1475.0
891.4084 572.0
892.4081 194.0
893.3636 193.0
893.8807 134.0
894.3713 112.0
897.4778 545.0
898.4888 283.0
996.3872 140.0
1004.4567 798.0
1005.4499 617.0
1006.4473 231.0
1013.4171 155.0
1015.4078 229.0
1034.5336 239.0
END IONS
BEGIN IONS
TITLE=Spectrum 1MVNNGHSFNVEYDDSQDK_1049.csv DRIFT_TIME=11.1817 11.0229 11.3297 11.2934 11.2647 11.3865 11.3724 11.3521 11.4173 11.3855 11.6486 11.4059 11.2952 11.343 11.3961 11.8256 11.3736 11.6368 11.8599 11.8005 11.8836 12.0109 12.349 13.0585 12.7892 13.1979 14.1756 13.5416 13.7181 13.7387 13.7322 15.6726 13.5761 15.6071 22.3187 15.0954 19.2814 14.9249 23.3115 18.8685 21.2361 20.4918 18.419 18.186 23.4243 22.8544 21.7491 18.8478 18.8408 22.3219 16.9313 25.401 20.9648 21.0067 21.6277 17.2833 17.3993 17.3704 27.5171 23.8012 25.8257 21.3841 22.4988 22.4605 22.4153 22.9979 29.6425 28.7175 19.8554 29.9925 30.1555 24.7195 24.5027 20.3266 20.1217 25.9907 12.1702 27.7269 27.0934 20.5561 22.5564 22.8187 22.4221 22.654 12.3628 33.1331 12.4407 32.3403 27.2516 25.7884 14.5896 12.5444 12.6914 13.0501 12.7495 12.7667 27.2277 12.7839 27.3711 27.3739 28.0648 23.9359 23.4464 24.1742 23.7808 15.340401 13.0704 12.9932 13.012 13.1307 12.9599 31.151299 31.543999 34.9832 12.5161 12.7625 17.4873 24.0683 16.4803 23.9876 16.5893 16.5435 12.7473 13.1976 12.6987 13.772 12.8638 13.4021 30.6769 13.7784 26.2682 25.924 30.4646 13.2948 12.8651 13.0945 12.8522 25.074 34.6117 13.2568 13.08 20.0204 13.5707 19.9682 19.7859 39.2757 39.4412 32.0061 32.2967 32.0231 32.2783 13.4351 13.3166 13.3699 13.4174 24.8198 13.4682 13.5799 13.5519 25.5549 13.7257 43.2214 41.6222 28.2808 28.5278 28.5019 34.2157 34.2701 34.2514 34.2984 12.9146 13.9852 34.1802 13.7968 13.9086 33.8853 13.6678 14.0775 33.7686 14.1438 13.8379 45.0942 44.8896 34.0753 34.0876 30.9237 33.6191 33.2959 13.4958 14.2539 33.2753 42.2402 14.6879 25.067 13.5982 13.6605 36.7872 35.6122 35.7917 35.5428 44.8706 35.1254 44.526 15.119801 35.5374 44.4448 35.573 25.3345 35.1321 13.9897 14.3252 14.0756 14.3566 31.8167 31.151299 31.411697 32.0572 27.1142 34.4536 35.0814 35.4665 37.147 36.7878 36.9916 37.0117 37.0462 50.1515 37.3277 50.339 28.5147 37.4117 47.5224 16.0222 29.45 48.7379 47.9372 25.9823 26.3531 30.1546 25.9393 51.9101 35.0125 51.8913 34.6093 39.6511 50.7007 35.1804 49.928 39.7308 34.8987 39.0358 39.8504 40.3558 51.1559 38.7548 51.6645 38.754 38.3544 38.5299 38.2723 28.8846 29.5389 37.8089 35.7071 42.9625 42.7873 41.5375 20.3181 38.011 37.9229 38.143 38.1671 38.2018 31.6641 37.9215 37.9031 32.0072 32.1668 32.4702 40.9676 39.9449 45.9037 46.0292 33.064 33.6458 40.7016 41.354 41.0396 41.4854 41.0834 40.9573 41.0317 32.3131 32.3331 32.54 43.7326 42.9172 44.1757 43.9444 62.0239 43.9965 43.9952 44.0944 43.7752 43.5909 35.0105 44.3182 67.0987 65.895 43.2361 28.0158 36.7045 36.3782 36.1517 67.026 42.9686 47.0839 46.3638 46.9311 41.7094 67.1679 50.8004 38.0509 48.332 37.9852 38.1996 47.133 46.2157 39.1555 38.9582 38.9529 39.8339 44.6936 45.2211 45.6074 45.2775 45.3406 48.9577 41.6813 48.5399 41.6608 48.3223 42.264 42.3054 42.2126 42.3526 41.702 41.3532 76.0136 77.1884 77.2389 78.1302 77.9793 43.5043 50.0664 49.8004 44.8342 79.3986 44.4661 45.0138 79.0965 45.3791 46.281 46.0808 46.4223 45.4352 46.4361 47.0675 46.9051 80.6169 47.0555 46.8156 79.9387 47.1107 78.2735 51.2928 51.6744 52.1709 51.1791 52.1724 54.7237 93.9993 90.5123 50.4278 98.7999 104.4417 73.1385 72.2037 72.4666 124.3797 131.8066 130.1019 
PEPMASS=1049.9445
CHARGE=2+
56.0470 433.0
57.0317 271.0
70.0611 389.0
72.0777 191.0
84.0757 898.0
104.0642 657.0
110.0649 400.0
122.0732 1660.0
123.0770 146.0
129.0925 368.0
129.9573 154.0
130.0796 430.0
136.0687 451.0
147.1029 195.0
158.0898 510.0
171.9659 297.0
195.0742 151.0
201.9728 719.0
203.1072 615.0
215.9873 297.0
226.1070 217.0
227.0877 188.0
249.9719 757.0
262.1236 1315.0
262.9735 343.0
263.1293 180.0
286.1001 149.0
288.9852 584.0
306.9894 15194.0
307.9982 1880.0
308.9898 1643.0
309.1148 119.0
310.9903 358.0
314.0817 134.0
340.1626 129.0
344.9409 1169.0
345.1394 236.0
346.9338 209.0
357.2268 338.0
371.0522 135.0
372.1682 323.0
373.1535 577.0
380.9152 698.0
382.9148 311.0
390.1801 369.0
395.1635 272.0
396.1475 150.0
398.9202 262.0
400.9217 147.0
408.9869 163.0
408.9975 144.0
414.1671 114.0
416.8857 469.0
418.8856 305.0
423.1548 235.0
434.8991 3721.0
435.8966 285.0
436.8960 172.0
442.1694 137.0
444.9591 193.0
446.1355 133.0
446.9407 719.0
454.8357 717.0
456.8310 320.0
458.8300 142.0
458.9823 157.0
459.1857 210.0
460.1892 122.0
472.8451 540.0
477.2069 1669.0
478.2086 380.0
482.9109 559.0
484.9096 144.0
490.8562 822.0
492.8544 141.0
496.9228 112.0
497.9310 212.0
498.9397 136.0
503.9583 254.0
507.7617 111.0
508.8207 1181.0
509.8234 138.0
510.8183 574.0
512.8185 117.0
515.9142 473.0
516.1998 333.0
516.9147 277.0
517.1944 127.0
518.8834 403.0
520.8827 214.0
521.6237 285.0
524.3660 136.0
525.3635 147.0
533.9027 205.0
534.8864 394.0
535.8919 232.0
536.8925 1256.0
536.8943 193.0
537.8904 203.0
538.8895 212.0
539.9365 213.0
546.7665 2259.0
547.7730 205.0
548.7641 570.0
550.7601 196.0
551.1178 132.0
552.8738 390.0
553.8731 565.0
554.3748 208.0
554.8727 313.0
555.8698 137.0
555.9644 649.0
556.9674 166.0
561.1531 123.0
561.8751 473.0
562.3731 144.0
563.6684 121.0
564.7718 524.0
566.6379 830.0
566.7728 178.0
567.1373 400.0
567.6379 181.0
570.3308 203.0
570.8421 154.0
571.3431 173.0
571.8530 264.0
572.3419 174.0
572.8540 182.0
572.8666 437.0
573.8571 152.0
574.8459 905.0
575.8371 150.0
575.8929 119.0
579.8692 366.0
580.8526 536.0
581.3555 192.0
581.8518 169.0
582.7524 241.0
585.0025 158.0
588.3156 270.0
589.3155 316.0
590.2052 592.0
590.3177 127.0
590.7105 388.0
591.2138 130.0
592.2303 1007.0
593.2260 249.0
593.9078 2123.0
594.9105 406.0
595.9150 509.0
597.9065 291.0
598.8393 841.0
599.3454 354.0
599.8411 934.0
600.3304 288.0
600.7505 712.0
600.8408 422.0
601.3345 169.0
601.8419 170.0
602.7521 151.0
607.3075 143.0
608.2304 280.0
609.2212 136.0
610.8172 947.0
611.8204 129.0
612.8084 214.0
612.9804 3184.0
613.9888 1108.0
614.9794 1532.0
615.9823 586.0
616.3002 142.0
616.8294 504.0
616.9782 898.0
617.3214 165.0
617.8255 650.0
617.9799 188.0
618.3257 276.0
618.8240 396.0
618.9668 140.0
619.3304 160.0
619.8230 173.0
625.2562 616.0
626.2632 338.0
629.8813 564.0
630.8920 113.0
631.8599 843.0
632.8977 155.0
633.8885 326.0
634.2810 125.0
635.8038 162.0
635.8898 127.0
636.2225 158.0
636.7987 173.0
638.7037 658.0
644.8089 381.0
645.8051 192.0
648.9610 247.0
650.9245 3369.0
651.9261 1053.0
652.9269 1300.0
653.2547 823.0
653.9299 483.0
654.2387 235.0
654.7890 154.0
654.9227 771.0
655.2597 124.0
655.9270 243.0
656.7121 240.0
656.9196 179.0
662.7909 319.0
663.2756 140.0
663.7865 282.0
664.7818 143.0
664.8011 727.0
665.8022 166.0
666.7934 127.0
667.8322 372.0
674.6690 192.0
675.9720 116.0
683.8669 295.0
685.8612 125.0
686.9055 1115.0
687.9047 293.0
688.8791 2464.0
689.8879 501.0
690.8881 853.0
691.2773 689.0
691.8903 208.0
692.2768 233.0
692.6745 362.0
692.8851 276.0
695.2649 106.0
700.7602 112.0
702.7409 323.0
707.2498 720.0
708.2498 257.0
708.7449 219.0
709.2433 191.0
710.6502 127.0
711.7511 129.0
712.2932 139.0
721.8171 1270.0
722.2673 140.0
722.8085 212.0
722.8776 137.0
723.2669 162.0
723.8094 291.0
724.2090 127.0
724.8615 398.0
725.8131 155.0
725.8656 139.0
726.8484 285.0
728.8752 128.0
740.2820 503.0
740.8856 1629.0
741.2857 240.0
741.8888 548.0
742.8839 595.0
743.8939 222.0
744.8833 320.0
753.3173 136.0
753.8063 121.0
757.7937 203.0
759.7648 391.0
760.8254 381.0
762.8166 394.0
764.8493 111.0
772.2585 121.0
778.8292 3068.0
779.8351 841.0
780.8288 1226.0
781.8279 337.0
782.8248 618.0
783.2708 170.0
783.8390 154.0
784.8269 115.0
792.2847 421.0
792.7834 339.0
793.2850 141.0
795.7306 181.0
797.7312 118.0
798.7863 123.0
800.7821 111.0
809.8552 143.0
810.3422 114.0
814.8018 584.0
815.8104 153.0
816.7852 1594.0
817.7959 341.0
818.7907 421.0
819.7849 137.0
820.7693 132.0
820.7940 227.0
821.2974 187.0
821.7977 134.0
831.7136 108.0
833.6894 184.0
850.8023 154.0
852.7526 1980.0
853.2902 142.0
853.7492 397.0
854.7454 1007.0
855.7546 230.0
856.7470 288.0
858.7512 109.0
869.3018 118.0
869.6426 117.0
870.3081 698.0
871.3062 336.0
871.6601 120.0
874.9997 113.0
877.8157 190.0
878.3020 218.0
878.7991 141.0
887.3388 183.0
887.6709 133.0
888.7265 446.0
890.7155 463.0
892.7044 266.0
906.7453 203.0
922.3454 208.0
924.7042 124.0
926.3205 339.0
926.6660 303.0
926.8266 246.0
927.3216 129.0
928.6587 298.0
930.6532 127.0
934.8298 487.0
935.3349 528.0
935.8296 347.0
936.3371 123.0
942.6883 111.0
944.6795 1357.0
945.6786 336.0
946.6836 282.0
948.6770 130.0
980.6572 422.0
981.3334 113.0
981.6734 106.0
981.8439 125.0
982.6300 285.0
984.3822 164.0
984.8783 168.0
985.3700 133.0
989.8317 176.0
990.3402 198.0
990.8574 149.0
999.3354 546.0
1000.3493 342.0
1001.3609 371.0
1002.3674 210.0
1003.3518 148.0
1003.8637 108.0
1018.6086 472.0
1020.6003 242.0
1032.3586 167.0
1032.4142 175.0
1032.8331 227.0
1033.3554 169.0
1033.4168 192.0
1033.8585 125.0
1040.8759 377.0
1041.3691 912.0
1041.8712 720.0
1042.3776 452.0
1042.8542 196.0
1049.8776 1675.0
1050.3757 1969.0
1050.4291 1227.0
1050.8770 1397.0
1051.3836 633.0
1051.4302 666.0
1051.8813 283.0
1052.4574 219.0
1052.4853 178.0
1052.8111 310.0
1053.1406 209.0
1053.4859 122.0
1054.5708 132.0
1092.5260 129.0
1098.4078 179.0
1100.4360 213.0
1110.5264 130.0
1212.4318 300.0
1229.4707 223.0
1400.1316 158.0
1400.6055 150.0
1401.1150 122.0
1446.5187 267.0
1446.5200 265.0
1447.5325 226.0
END IONS
BEGIN IONS
TITLE=Spectrum 1QSPVDIDTK.csv DRIFT_TIME=16.3109 17.4302 16.1662 16.2331 18.3111 18.0107 18.5116 17.578 17.6177 16.7346 16.3758 16.472 16.3154 16.3802 19.6293 16.3675 16.6832 19.4341 16.5111 17.4179 16.805 19.1957 18.6356 19.6001 19.2269 19.7772 20.3938 20.2672 16.9727 16.93 16.2134 16.6895 19.1746 19.9379 17.0404 19.1594 19.1424 16.1663 18.8846 19.4815 19.2256 16.978 19.0959 16.9047 19.6971 16.6117 17.2521 20.6366 17.6265 22.2857 17.4287 18.8176 17.2453 19.1924 17.383 20.3269 20.0316 19.2953 20.5635 19.9641 21.9953 17.0804 18.9713 18.2432 18.2883 18.6866 19.2425 17.9951 18.4928 17.3199 20.8427 17.3371 17.1495 20.6615 21.8125 18.1817 20.7466 17.7148 20.5603 20.3279 28.7725 18.6489 20.3238 21.6269 17.9722 21.6381 22.2889 20.3028 20.1245 21.8319 18.7967 19.1222 21.2471 21.6706 21.5672 18.5187 19.8859 23.8644 22.8842 23.9223 20.2981 20.0795 21.629 21.3312 21.3767 22.5037 27.83 21.3212 21.2979 21.7158 21.1421 20.5915 22.1718 26.9127 22.0244 22.1365 19.6439 19.6864 22.2776 24.0751 23.325 20.8746 23.0005 22.8301 23.1176 26.4051 26.1683 22.957 22.5079 31.3396 24.3789 26.561 22.4034 24.2643 26.831 25.9922 24.7363 25.6058 25.3607 28.0546 32.449 22.2663 22.7066 22.3107 28.6127 28.8056 29.7715 22.8509 29.0583 30.7498 25.2309 28.6208 28.6617 25.5139 29.0317 28.9271 25.7645 25.5655 25.5432 25.5182 20.6496 25.6878 25.2971 28.9461 30.9368 28.1692 29.9053 23.6527 21.5094 34.8969 23.1393 23.3577 22.4465 28.6525 28.3575 30.1198 30.858 26.1948 26.4002 21.3799 26.1401 26.2068 34.051 26.1138 31.5191 28.2942 31.852402 30.1928 31.1344 23.7129 16.389 31.204498 24.2868 23.7693 32.1665 31.576 30.0006 25.0098 33.2319 24.2115 29.7343 35.1454 31.2416 27.7697 30.3817 32.7877 28.9171 32.594 28.9794 29.2051 31.1744 31.281403 30.4946 34.2667 23.7948 35.3327 31.674202 17.1231 36.3993 20.7361 16.9539 24.1785 33.2026 16.9309 16.8926 40.6603 16.8687 32.2272 27.7645 25.4275 34.6218 25.4907 27.1881 17.0499 31.070099 17.2551 33.1986 31.132797 17.1153 31.2835 27.9708 31.494102 31.328697 39.3895 30.8382 39.1069 38.5889 31.051598 37.9651 25.6988 17.3509 17.4182 17.3062 17.5521 27.0874 35.1274 37.8778 44.4056 35.8624 29.0174 46.0845 28.275 37.0884 17.517 18.2645 18.1518 18.0763 42.9753 18.4123 44.9268 31.0481 34.3152 23.8841 23.6993 36.0017 23.4796 17.9624 36.5245 48.7147 36.9267 34.6887 39.9066 43.0726 29.1938 35.246 29.3034 36.9662 26.2877 36.3793 45.4849 17.8181 35.108 43.0727 17.8577 17.9237 34.9574 42.7756 35.0931 45.2503 35.2116 36.5769 47.2262 26.5621 36.7896 36.9336 48.1326 17.7877 34.3917 29.239 42.4935 26.3138 18.704 36.1545 26.1583 45.1703 19.0623 18.7279 45.4549 45.7551 50.3684 49.6747 26.5911 19.2588 42.0367 41.6373 42.2339 32.8891 27.201 33.5592 51.903 34.5015 33.8841 23.1091 42.8403 48.1753 23.2874 34.2009 22.8963 43.0022 53.0952 26.4479 42.5832 41.8033 43.099 30.1081 28.096 28.6355 26.8718 54.4317 27.636 27.2308 27.2622 28.7546 52.2424 30.4542 30.2862 53.098 30.5669 30.5269 51.604 59.7125 34.4253 59.4934 43.2003 50.0469 30.9824 34.6533 28.7509 49.9231 29.0678 44.136 37.8456 31.881302 32.612 48.9901 32.8182 55.851 54.2294 50.5095 51.1416 39.5653 33.0601 33.261 23.0277 23.1185 23.0044 48.9935 59.2186 58.5274 33.4799 54.9468 58.3254 32.3015 39.3975 58.7852 38.5456 32.1415 32.1328 32.9589 33.2026 55.8576 33.0649 33.1776 33.2115 58.3301 33.1508 58.5956 59.1734 33.4799 33.496 33.3064 24.5501 24.6294 24.9408 40.6344 57.6643 34.5537 58.0201 34.7111 64.7764 51.0693 71.013 35.1638 53.2954 51.2133 54.2256 68.3131 60.8589 71.0028 71.7133 71.3659 38.6414 36.8263 63.4591 36.8867 33.9967 36.9889 70.068 36.7579 37.2519 37.1267 70.0389 46.2317 63.454605 37.2044 60.922 37.4275 37.4548 37.6195 37.2383 38.2619 38.1462 38.023 59.173 37.7186 36.0864 39.8129 78.877 39.5191 78.8781 39.5637 38.8023 102.825 38.8958 65.3099 65.4839 67.4679 60.792 74.7242 75.0251 75.354 78.9853 87.0191 87.3736 88.7005 83.3449 83.2425 86.9423 86.728 90.1866 69.157 85.7858 85.2887 92.1352 89.593 94.1244 87.6464 91.4784 92.1744 102.2425 103.9713 102.3812 103.2552 104.5576 103.2651 118.1624 109.9967 105.535 107.7924 115.3126 114.1919 114.4082 126.799 120.163 124.8621 119.4559 119.0755 124.4537 127.8156 131.1184 124.4596 130.0432 118.7473 131.1568 137.2153 131.5182 143.6717 149.1756 156.769 
PEPMASS=501.762
CHARGE=2+
101.0709 770.0
102.9689 251.0
104.0701 799.0
110.0716 636.0
112.0073 143.0
112.9924 215.0
114.9516 9332.0
116.0028 1367.0
116.9878 510.0
120.0799 255.0
122.0805 1688.0
125.0698 564.0
126.0544 5781.0
127.0572 603.0
128.9683 1242.0
129.0662 508.0
129.1021 2458.0
129.9634 1066.0
130.0858 2924.0
130.9997 258.0
131.0905 207.0
131.9586 248.0
132.9627 4702.0
133.9678 1619.0
134.9638 353.0
135.9637 392.0
136.9307 180.0
140.9682 373.0
141.0635 165.0
141.1027 466.0
141.4607 346.0
143.0816 890.0
144.9626 1876.0
146.9798 448.0
147.1121 1681.0
147.9729 457.0
149.9688 135.0
150.4661 191.0
150.9719 708.0
151.9791 793.0
152.0013 456.0
152.0784 304.0
152.9729 159.0
153.0649 670.0
153.9761 270.0
154.0513 382.0
154.1227 170.0
154.9412 185.0
156.1017 172.0
156.9488 177.0
157.0977 420.0
158.0119 281.0
158.0940 148.0
158.9801 756.0
159.0807 203.0
160.0284 534.0
161.9908 470.0
162.9744 1086.0
164.0008 340.0
165.9837 214.0
166.8687 1058.0
167.0837 370.0
167.9962 153.0
168.0796 123.0
169.0960 476.0
169.1327 2265.0
170.0115 200.0
170.0918 4962.0
170.1378 213.0
171.0760 3442.0
171.9737 1175.0
172.0785 364.0
173.0580 155.0
173.9738 300.0
174.9571 628.0
175.1199 181.0
175.9648 227.0
176.0210 565.0
176.9897 185.0
178.0414 283.0
179.0012 158.0
181.0592 206.0
182.0129 312.0
184.8786 177.0
185.0936 155.0
185.1620 137.0
185.9894 742.0
186.0877 121.0
187.1099 200.0
187.9719 434.0
188.1023 1572.0
189.1005 235.0
189.9860 700.0
192.9642 21451.0
193.9722 557.0
195.0780 336.0
195.8942 1083.0
196.0058 165.0
197.1311 242.0
197.9894 794.0
198.0864 1029.0
199.0743 323.0
201.1232 1224.0
201.9861 1246.0
204.0000 4196.0
204.1322 189.0
204.9828 131.0
205.0036 540.0
205.9969 2252.0
206.9974 251.0
207.9932 1770.0
209.0914 233.0
209.9541 222.0
210.0807 486.0
210.9752 15533.0
211.9802 335.0
213.0867 339.0
213.9053 591.0
215.0995 143.0
216.0014 657.0
216.0974 307.0
217.0839 209.0
218.9538 194.0
219.9833 389.0
221.9757 405.0
222.9865 200.0
223.8884 1319.0
223.9730 198.0
225.9066 835.0
226.0738 158.0
226.0760 223.0
228.0900 404.0
228.9868 761.0
229.1162 358.0
230.1498 916.0
231.1425 219.0
231.9776 1631.0
232.9751 156.0
233.9723 235.0
240.1310 148.0
240.1707 138.0
241.8981 4639.0
242.9035 256.0
243.9137 930.0
243.9824 191.0
244.0844 193.0
244.1639 258.0
244.9128 109.0
245.8983 214.0
246.0575 264.0
247.9727 155.0
248.1587 7089.0
249.1625 1088.0
249.9864 8147.0
250.1176 376.0
250.1663 167.0
250.9916 1446.0
251.9827 12419.0
252.9878 2267.0
253.9801 6962.0
254.9278 163.0
254.9849 742.0
255.9777 720.0
256.0860 182.0
257.1597 443.0
258.0151 322.0
258.1444 808.0
259.8645 3770.0
259.9107 991.0
260.1985 155.0
260.8661 129.0
261.8609 1005.0
261.9276 244.0
261.9938 545.0
262.9857 394.0
263.9045 199.0
264.0640 128.0
267.9992 1208.0
269.0009 136.0
269.8936 221.0
269.9950 1976.0
271.0007 307.0
271.9259 139.0
271.9898 967.0
272.1233 582.0
273.9897 420.0
275.1695 590.0
275.9100 202.0
276.7671 396.0
277.8748 4309.0
278.4970 242.0
278.7637 197.0
278.8823 135.0
279.8732 1392.0
279.9565 586.0
281.1023 473.0
281.9577 829.0
282.9250 1598.0
283.1415 306.0
283.9217 247.0
283.9569 223.0
284.1658 110.0
284.9022 141.0
287.9405 544.0
288.9987 1659.0
289.9264 222.0
291.0441 1909.0
291.9999 392.0
292.0465 250.0
293.0314 239.0
293.9218 251.0
294.7798 448.0
294.9262 131.0
295.1376 211.0
295.8849 909.0
296.1235 338.0
296.7740 240.0
296.9403 154.0
297.1444 113.0
297.1509 311.0
297.4684 873.0
297.8859 363.0
297.9641 317.0
297.9710 168.0
298.4688 187.0
299.2020 131.0
299.4511 214.0
299.9645 225.0
300.8566 174.0
300.9374 741.0
301.1130 110.0
301.9366 129.0
305.9538 575.0
307.0026 185.0
307.0073 6511.0
307.4381 154.0
307.9332 128.0
308.0124 1156.0
308.4452 294.0
309.0056 1410.0
309.9405 142.0
310.0158 171.0
311.0049 374.0
312.1547 4831.0
312.7908 325.0
313.1587 916.0
314.1570 154.0
314.7844 258.0
315.1662 171.0
315.8793 138.0
316.4407 1666.0
316.9420 382.0
317.4421 552.0
318.4433 184.0
318.8619 352.0
318.9382 137.0
319.1597 205.0
319.1969 124.0
319.9940 748.0
320.8788 3704.0
321.2090 242.0
321.8699 201.0
323.9041 170.0
325.4489 664.0
325.9777 1667.0
326.4749 332.0
326.9778 439.0
327.1633 112.0
327.9698 147.0
328.1819 118.0
330.7986 126.0
331.0091 377.0
333.1407 971.0
333.6527 484.0
333.9400 1009.0
334.1497 623.0
334.4485 395.0
334.9429 179.0
335.1166 210.0
335.9370 115.0
336.8758 429.0
336.9120 118.0
338.1084 170.0
338.8879 5669.0
338.9824 928.0
339.8887 139.0
341.9258 348.0
342.6604 723.0
343.9163 206.0
344.1437 432.0
344.9514 2550.0
344.9562 4339.0
345.1737 568.0
345.4540 560.0
345.9499 520.0
345.9584 536.0
346.1588 134.0
346.9539 499.0
347.2268 247.0
348.9540 160.0
349.0218 150.0
349.1874 132.0
351.8039 843.0
351.9511 665.0
352.9537 157.0
353.1356 104.0
353.9559 262.0
354.8876 315.0
356.9019 667.0
358.1340 165.0
362.6600 775.0
362.9429 530.0
362.9672 426.0
363.1612 148.0
363.1855 3327.0
363.4363 151.0
363.9412 257.0
364.1941 590.0
365.1988 140.0
366.2207 125.0
367.2029 186.0
369.8125 1332.0
371.9464 134.0
373.0605 920.0
374.0607 242.0
375.0543 415.0
375.8798 104.0
376.6529 557.0
377.8999 559.0
379.1895 168.0
379.8980 1290.0
380.8929 141.0
380.9295 345.0
380.9329 1316.0
381.1717 134.0
381.4317 108.0
381.8931 554.0
381.9249 278.0
381.9293 183.0
382.2411 162.0
382.6567 163.0
382.9302 484.0
383.0070 397.0
384.9284 132.0
385.2039 234.0
385.6606 934.0
386.1650 178.0
387.8201 675.0
388.2552 773.0
391.1696 711.0
391.6631 658.0
392.1686 121.0
392.6704 357.0
394.2055 549.0
394.2074 3805.0
394.7100 1906.0
395.1942 173.0
395.2128 567.0
395.7138 115.0
396.2155 117.0
397.2414 828.0
397.9077 433.0
398.2523 254.0
398.9477 838.0
399.1875 579.0
399.6885 184.0
399.9056 171.0
400.1741 1211.0
400.1892 157.0
400.6798 208.0
400.9421 426.0
401.8995 120.0
404.1961 233.0
408.8208 775.0
409.0109 148.0
410.1919 170.0
410.2404 437.0
411.2333 107.0
412.1773 106.0
413.1972 108.0
415.8451 285.0
419.2014 824.0
419.6983 188.0
421.9573 608.0
422.4601 134.0
422.9569 223.0
425.0069 226.0
425.2413 597.0
426.2345 121.0
426.8343 744.0
427.1852 418.0
428.2511 151.0
433.1980 531.0
433.8559 782.0
435.1523 153.0
435.8579 115.0
437.7204 156.0
438.2244 114.0
438.7055 125.0
439.2002 135.0
440.1747 127.0
441.7120 259.0
442.2019 3671.0
442.7057 708.0
443.2141 418.0
443.7325 270.0
444.2200 122.0
445.2040 298.0
445.7172 194.0
447.7108 1156.0
448.2049 835.0
450.4676 1108.0
450.9693 305.0
451.4708 317.0
451.8644 130.0
453.1695 215.0
456.7133 1933.0
457.1972 161.0
457.2149 474.0
458.2607 247.0
459.0086 321.0
459.2934 277.0
461.7511 269.0
463.0176 184.0
465.0105 270.0
466.0283 301.0
468.2479 271.0
470.1923 135.0
476.2722 1751.0
477.2726 545.0
478.2735 134.0
479.7417 125.0
482.2406 204.0
483.1735 242.0
483.7386 301.0
484.1596 212.0
484.2453 213.0
484.2763 105.0
484.7397 143.0
488.2402 469.0
488.7340 545.0
490.2660 149.0
490.8835 184.0
491.2188 169.0
491.2399 169.0
492.2131 203.0
492.7478 1780.0
493.2482 1048.0
493.7519 328.0
494.2464 139.0
497.2434 4017.0
497.7377 2640.0
498.2414 354.0
498.9599 210.0
501.2366 187.0
501.7174 139.0
502.3008 177.0
503.3522 499.0
504.2905 369.0
504.3657 170.0
504.7954 259.0
506.2480 4724.0
506.4723 436.0
506.7531 1264.0
509.2299 1941.0
510.2338 601.0
526.2262 264.0
536.9198 379.0
540.2651 2748.0
541.2674 796.0
542.2713 221.0
544.2628 129.0
556.3438 2174.0
567.2847 527.0
568.2746 145.0
573.2832 310.0
574.2895 157.0
591.2970 3710.0
592.2970 1172.0
593.3009 365.0
593.9337 321.0
594.3160 125.0
622.3068 204.0
622.3118 281.0
623.3032 174.0
623.3112 164.0
627.3018 207.0
639.3166 275.0
641.3151 221.0
670.3866 478.0
671.2565 191.0
684.3195 201.0
690.3660 1763.0
691.3719 682.0
716.2809 135.0
722.2942 274.0
734.3016 223.0
737.3473 900.0
738.3461 357.0
741.4354 333.0
752.3184 193.0
764.3168 229.0
769.4142 223.0
770.3162 111.0
770.3970 147.0
781.3401 386.0
782.3262 242.0
787.4121 1999.0
787.4153 1951.0
788.4182 823.0
788.4194 1071.0
789.4225 370.0
799.3462 427.0
807.3988 180.0
856.4479 340.0
856.4482 283.0
874.4537 285.0
913.4725 902.0
913.4746 691.0
END IONS
BEGIN IONS
TITLE=Spectrum 1SHHWGYGK_01.csv DRIFT_TIME=23.6446 23.541 23.7564 23.392 23.119 23.366 23.4168 27.7153 23.3211 23.251 28.5768 23.87 23.3936 23.1426 23.4313 23.3369 23.805 23.587 23.3567 23.3084 23.3594 23.3818 23.5543 23.6574 23.9958 23.7554 23.5046 24.6309 23.9859 23.2512 23.4139 23.5124 23.338 23.818 24.4408 23.7715 23.8092 23.7088 23.9071 23.6001 23.6354 23.7696 23.5414 24.3855 24.7494 24.0473 24.8033 25.0425 23.5521 24.9635 24.9844 23.8623 25.2626 23.3203 24.1389 25.0546 24.4565 25.2646 25.1949 24.9813 24.9159 103.1384 23.9071 23.818 23.3369 57.2892 69.7446 24.8584 23.3818 45.5827 36.5078 26.2195 23.6354 24.0473 23.5124 23.392 27.4264 30.1505 24.6309 23.5178 23.7696 23.2476 26.3734 109.6642 23.6446 88.287 32.4414 45.9034 23.9859 28.6748 25.0425 28.7889 46.3097 23.4168 23.3567 23.7554 63.171906 23.3936 146.7275 91.1234 23.805 23.7088 30.1449 68.1779 94.6016 29.4979 47.5509 27.6187 26.8908 91.383 96.6473 26.2219 23.338 23.3904 23.541 24.1389 23.6574 111.8512 81.0738 34.5813 28.5768 105.0369 67.7501 24.2536 30.2899 56.8127 25.6661 72.5118 23.2264 109.2418 29.6479 23.7564 49.4948 139.4105 24.2817 59.0204 25.2626 23.3203 23.1426 23.8623 24.7279 73.0212 111.0744 54.6496 67.3701 52.5556 28.2376 25.0546 46.6129 60.4434 94.0045 95.6229 70.391 92.5461 109.8185 23.5521 25.669 80.7186 66.5065 23.87 46.028 24.9159 91.5519 64.1365 23.587 41.2777 74.4998 33.4017 24.9635 23.8092 104.6146 24.3855 35.1484 112.1891 56.9051 23.5414 108.8987 71.4188 110.9654 111.1124 28.5843 25.3936 114.2105 112.3624 81.0501 82.2652 114.3867 23.5046 115.8002 35.0898 50.1709 62.536 23.3343 38.1703 98.4483 114.3408 31.8406 27.7153 105.1637 51.9636 106.4432 105.4936 115.6991 53.9967 
PEPMASS=486.23
CHARGE=2+
53.0075 579.0
53.0318 320.0
54.0034 258.0
54.0275 703.0
55.0113 1661.0
55.0480 4196.0
56.0426 498.0
56.9580 116.0
59.0419 4253.0
67.0459 1365.0
67.9600 286.0
68.0051 171.0
68.0408 465.0
69.0254 228.0
69.0605 15321.0
70.0633 893.0
72.0712 456.0
74.0861 163.0
77.0291 495.0
79.0431 1842.0
80.0404 2784.0
81.0586 842.0
82.0535 1033.0
83.0367 313.0
84.0326 1356.0
84.0682 473.0
86.0469 132.0
86.0843 675.0
89.0472 535.0
91.0409 1004.0
93.0565 1020.0
94.0514 711.0
95.0361 332.0
95.0720 960.0
96.0674 1656.0
97.0514 1134.0
98.0852 154.0
101.0445 452.0
102.0401 966.0
103.0395 1213.0
105.0280 739.0
105.0545 646.0
106.0577 148.0
107.0582 150.0
110.0802 22163.0
111.0285 718.0
111.0832 1915.0
112.0965 516.0
113.0405 177.0
113.1007 155.0
114.0751 3289.0
115.0361 227.0
115.0765 236.0
117.0178 232.0
117.0525 317.0
118.1058 201.0
119.0678 4579.0
120.0654 1616.0
122.0779 26498.0
123.0827 2751.0
124.0577 170.0
398.1241 984.0
102.0401 966.0
95.0720 960.0
70.0633 893.0
234.1010 887.0
268.1273 865.0
130.0579 853.0
81.0586 842.0
218.0785 833.0
192.0607 830.0
140.9901 781.0
105.0280 739.0
111.0285 718.0
94.0514 711.0
54.0275 703.0
139.0738 701.0
183.0098 693.0
86.0843 675.0
205.0563 667.0
105.0545 646.0
183.0464 606.0
143.0046 604.0
410.1252 599.0
53.0075 579.0
342.1000 563.0
162.0516 560.0
217.0443 537.0
89.0472 535.0
155.0472 522.0
112.0965 516.0
176.9826 509.0
216.0897 509.0
56.0426 498.0
77.0291 495.0
84.0682 473.0
262.0586 467.0
68.0408 465.0
490.2677 465.0
401.0479 463.0
72.0712 456.0
101.0445 452.0
156.0776 423.0
286.0601 407.0
342.0954 404.0
158.9987 399.0
227.0272 375.0
140.0848 372.0
148.0595 372.0
357.0754 367.0
357.0832 337.0
133.0822 335.0
95.0361 332.0
161.0391 328.0
53.0318 320.0
117.0525 317.0
83.0367 313.0
375.5509 306.0
323.0874 300.0
172.0868 297.0
67.9600 286.0
399.1294 283.0
252.1058 277.0
227.0644 270.0
157.0762 267.0
277.0518 267.0
142.0591 266.0
270.1438 266.0
139.0287 264.0
375.3749 261.0
168.0659 259.0
54.0034 258.0
233.0359 256.0
490.2663 248.0
129.0502 240.0
241.1420 240.0
115.0765 236.0
117.0178 232.0
69.0254 228.0
115.0361 227.0
132.0327 225.0
313.0493 220.0
375.6302 213.0
257.0238 208.0
259.1485 207.0
229.0019 206.0
146.0831 205.0
118.1058 201.0
184.9866 201.0
269.0302 200.0
368.0837 198.0
415.0631 192.0
269.1365 187.0
395.1009 180.0
376.5143 178.0
113.0405 177.0
143.0655 174.0
345.1053 173.0
321.0751 172.0
68.0051 171.0
206.1038 171.0
124.0577 170.0
373.1228 170.0
252.1293 168.0
74.0861 163.0
189.0114 163.0
297.0535 161.0
186.0257 160.0
113.1007 155.0
98.0852 154.0
411.1330 152.0
107.0582 150.0
187.0710 150.0
397.0964 150.0
235.1087 149.0
106.0577 148.0
376.3326 147.0
284.1224 144.0
375.9066 144.0
375.4954 143.0
158.0488 141.0
141.0460 138.0
374.8702 137.0
377.8657 137.0
357.0272 136.0
331.0639 135.0
377.2917 135.0
86.0469 132.0
376.2725 131.0
130.9830 130.0
243.0234 130.0
271.0421 125.0
205.5553 120.0
186.0969 119.0
373.0716 119.0
376.9125 119.0
278.0449 117.0
56.9580 116.0
376.9136 116.0
247.0083 114.0
377.7142 110.0
376.3518 109.0
375.9381 108.0
242.0421 105.0
END IONS
BEGIN IONS
TITLE=Spectrum 1VGDANPALQK.csv DRIFT_TIME=16.2986 16.2867 16.1969 16.221 16.2803 16.2266 16.479 18.083 16.221 16.2856 18.5381 16.4646 18.5629 17.9249 16.4688 18.5619 18.2201 18.405 16.2325 16.5298 16.6527 16.3645 16.3223 16.381 16.4124 16.4313 16.5157 19.5234 16.6696 19.2908 16.6162 19.2565 16.3084 16.637 17.1668 16.4673 18.5374 18.9343 18.659 19.2645 16.9434 20.7842 16.9061 16.4999 16.6785 16.9171 16.5821 19.5313 16.9119 18.6965 20.2154 17.028 19.3177 16.9681 18.4368 17.0777 20.3211 16.8214 19.8753 17.5466 17.2405 19.333 17.7354 20.5123 17.6479 20.2422 19.4796 17.2441 21.0048 22.0163 19.1314 17.5347 18.489 17.1963 18.2018 17.8747 20.9355 17.9324 20.5482 17.0726 21.489 19.1494 18.0512 18.3763 18.5727 18.4169 20.2837 20.0714 21.9398 20.2279 22.0534 19.9199 19.1543 18.3821 19.1408 20.9872 20.3697 20.5019 21.6813 21.1917 21.7605 21.6276 18.6791 21.1693 18.9852 21.5256 19.1304 24.1784 20.1775 23.375 21.6531 20.1618 21.4228 22.7532 22.6275 21.9849 21.3043 20.6672 26.0803 20.9016 22.0763 25.6996 22.0721 21.2097 22.1249 21.9196 25.331 22.1032 23.2282 23.539 23.4486 24.0864 23.0685 22.8728 27.9797 22.1795 28.1939 22.8404 26.7431 23.8183 20.8259 23.947 22.6427 28.598 16.155 27.6233 22.6314 24.0606 24.3947 25.9649 26.1811 24.1859 24.6355 28.6341 25.8753 29.7593 27.8757 27.8418 22.3193 30.1731 22.5436 25.6181 27.5011 29.3956 29.1725 28.4741 29.2788 27.8686 25.8041 25.5373 25.4657 25.6644 25.5688 27.9096 25.0708 27.2492 39.2064 26.0763 28.7159 30.3439 28.9894 25.2087 28.6244 34.4549 29.8216 29.6049 17.8939 21.7961 31.013802 34.0873 23.4898 28.2921 27.9922 30.0116 27.2274 29.9894 27.0956 30.1319 29.1615 29.3694 26.3896 29.6512 16.3806 29.1018 33.5226 30.4015 26.0468 31.9566 30.9447 31.6408 31.8316 16.8748 33.778 31.5727 30.056 31.324402 30.1796 30.5142 16.6217 18.4707 18.5684 23.5811 32.0026 32.0561 30.3495 41.3313 27.6939 33.1179 41.6055 19.5985 24.2315 33.5957 31.9301 34.9885 29.2991 27.7201 16.6675 30.3154 31.9096 30.7503 33.6124 30.4632 31.9346 30.6849 30.5415 32.7857 30.7273 35.4874 21.205 35.4332 17.0098 21.1145 17.002 31.8469 36.6766 17.0406 32.2448 39.2317 16.8804 41.8736 33.9416 34.7044 16.714 24.5879 34.9947 28.9413 34.7116 34.131 42.8434 35.1181 36.4193 29.3949 25.3571 27.8019 28.9892 31.135002 32.1818 31.0009 17.216 31.3623 17.2313 32.6752 23.5734 33.5942 30.9164 30.8814 39.9195 31.075699 36.1214 29.8852 31.1507 38.9319 26.0956 36.039 37.3482 37.4875 17.3357 17.4748 17.3955 25.4429 34.6909 25.6584 16.9389 35.0379 28.8705 35.0592 46.1057 27.9333 29.0003 28.9605 49.7819 37.1093 22.0601 37.8571 48.3903 22.0133 28.7967 28.9497 21.8577 37.9983 17.6769 33.045 18.2273 39.3564 43.5477 18.2559 18.2452 37.9867 17.9853 45.1424 22.0954 31.756798 30.9846 37.4056 23.7399 23.8601 23.5626 17.7426 23.4517 37.8833 23.3662 17.5078 22.1925 39.2745 39.5343 31.739899 39.3563 42.859 43.8081 29.1069 39.9142 35.0044 45.964 28.3525 40.6548 28.8951 35.2884 39.8358 50.2686 37.0836 24.0938 41.8106 49.7034 26.5071 29.4114 42.7469 26.3296 26.7618 34.6463 44.1569 17.8198 35.1269 17.7676 17.8627 35.207 17.8998 17.985 35.1606 45.7033 17.6466 35.2975 35.5677 36.4299 31.312 24.4386 32.066 20.2841 37.9804 50.1086 19.2553 17.9436 44.6771 40.0013 44.128 32.4911 32.8148 29.4085 40.6982 33.1201 41.7666 29.7877 40.6566 44.4854 45.6586 26.4502 34.1406 46.9047 26.2919 18.5599 36.1853 45.1531 26.3052 26.049 18.8124 36.1826 50.5451 44.7905 25.5262 18.8313 36.0364 20.1039 17.2801 19.5983 19.928 47.8318 26.7682 32.7642 46.8916 33.3294 45.1123 25.841 34.1941 47.6367 27.2257 50.3089 26.7556 33.3144 31.8107 31.7308 34.1688 20.239 31.128502 19.9875 33.3299 27.5949 50.1139 27.1462 26.7489 49.8936 26.0143 34.05 25.8894 27.7485 50.5977 27.6363 27.6242 36.7947 43.2922 51.2768 43.1447 49.2601 34.6903 23.2459 43.0626 26.7608 49.9497 53.7601 27.4299 22.7463 43.4869 27.1592 52.6435 27.6304 43.1704 43.0431 42.0706 28.1445 33.5743 48.6813 28.1222 27.1134 33.2755 26.0614 34.0253 54.0265 60.501 54.0886 35.4125 54.913 28.47 27.3927 52.0309 28.96 34.3586 29.1459 56.4167 28.3997 53.7242 28.2911 20.0692 28.7037 49.0635 48.4015 53.6623 52.8199 47.92 28.1533 43.2287 27.1443 56.2062 28.6997 35.1823 43.3631 28.6699 28.6583 43.3037 29.1746 30.4653 35.059 29.223 36.0563 42.4617 33.6415 50.0061 31.4697 30.9649 27.9013 50.2342 49.1454 30.1095 30.0556 29.9964 18.9872 28.7696 58.8197 31.670998 57.2928 31.5779 56.1383 30.2186 29.8271 51.8946 30.2805 30.2021 52.3394 60.1637 39.0298 46.8497 36.7426 28.9575 35.5204 46.7647 32.9145 33.1053 32.934 31.858398 35.8748 31.122498 61.0544 30.8442 51.8323 31.1988 59.5417 30.9187 53.4087 33.0929 63.1008 34.2525 63.563797 30.846 28.8101 54.3628 29.3719 32.7461 38.597 24.1761 50.351 29.121 29.883 24.1599 60.2161 42.4335 55.9439 33.3248 42.8527 33.2611 33.2541 42.7359 30.1412 32.826 36.6059 32.2041 32.6549 39.4505 32.5854 32.6297 39.4473 59.1029 29.8752 29.7909 39.1483 29.4248 58.6397 52.4868 30.3293 32.3146 54.6393 31.582802 31.754898 31.131401 55.1654 55.4055 33.2532 33.1424 64.455 34.4484 53.6943 57.6762 34.7851 34.5105 33.8418 33.3308 40.4305 42.7854 31.034302 33.3962 42.3073 33.0485 32.0456 43.0057 31.757797 58.615 62.0667 25.0778 24.8785 24.7014 34.7001 40.0798 24.4874 58.2316 34.9737 24.2331 34.6683 57.413 62.7398 55.2813 33.8839 34.4695 58.7054 34.0071 32.963 32.8855 59.6233 59.4431 69.9793 33.1684 70.7704 34.188 52.5482 34.0354 60.6708 34.0971 52.447 52.3149 61.2258 64.2128 33.5583 33.5655 33.346 65.3988 66.1954 39.3737 35.0385 61.984 34.804 34.0773 62.1654 34.3552 34.0684 64.2626 45.2293 45.4505 45.4325 56.9856 61.4681 62.2775 62.7463 36.5131 63.6024 36.0768 35.7519 35.0435 34.8567 35.0231 36.6633 63.257797 63.6063 36.7763 62.7854 38.6653 39.1643 33.9134 38.3108 64.7858 38.3605 38.3581 36.6219 36.7205 36.4807 37.1205 38.8482 38.9154 38.679 70.3338 38.2453 46.077 37.026 70.8174 35.8552 46.3061 36.7898 46.1271 60.8707 71.4088 38.1579 38.2295 64.2305 38.3574 38.5985 38.254 38.6395 67.3673 37.5996 37.5993 36.8771 37.7655 68.7084 38.8552 101.3594 38.9666 40.8016 71.6625 77.3538 100.6417 40.9379 40.7635 79.3497 40.3613 50.4504 65.3679 39.0838 38.9992 50.4218 65.3181 38.7033 69.1609 38.8548 50.1114 67.1826 75.5154 37.2314 77.4458 76.8194 74.7241 72.2144 73.245 78.5924 71.424 67.6819 66.8712 68.9138 71.3208 74.0145 73.9015 82.2091 82.1346 83.6413 72.766 75.9993 53.431 76.3405 76.1114 74.842 75.1258 87.4458 79.0387 88.2068 87.5029 88.1399 78.2018 81.3489 87.1578 87.4283 81.1443 81.8083 80.0809 79.7834 76.6469 81.1567 97.263 68.0224 84.1182 92.3173 85.9765 83.4005 51.6993 83.9663 86.4972 82.7713 90.9918 90.9015 88.7556 87.9104 87.9302 89.1856 88.2968 88.775 84.8261 90.7457 91.0002 90.2 93.8077 92.8446 94.1092 92.828 98.9547 99.945 93.8908 102.2717 96.2783 103.4268 100.9891 102.9628 101.7432 101.8418 100.3517 101.5191 102.434 102.9461 98.076 102.5607 102.2309 114.0567 109.2883 109.3313 108.2933 109.8643 113.7512 114.6036 114.4684 112.8823 122.1143 119.5144 125.811 117.0686 110.7349 115.6613 116.3564 111.3191 110.212 109.8335 114.3389 121.1378 113.7076 117.6604 110.0323 118.7225 114.6467 115.6978 120.4143 119.6838 129.9886 124.6643 110.1647 121.3597 124.8847 117.3477 119.5523 131.742 130.4699 135.1651 136.0279 137.9276 145.2647 135.9228 143.1108 145.7995 142.1787 139.0762 148.0584 150.794 149.7934 
PEPMASS=506.7775
CHARGE=2+
101.0717 493.0
101.1074 352.0
102.0548 188.0
104.0705 1318.0
110.0695 12226.0
111.0739 1083.0
112.0829 231.0
112.9920 171.0
113.0712 207.0
114.0550 346.0
114.9522 5680.0
115.0866 188.0
115.9560 429.0
116.0021 195.0
116.0701 193.0
116.9490 805.0
116.9867 964.0
118.9464 345.0
119.0503 529.0
120.0804 3616.0
121.0847 384.0
122.0806 3357.0
123.0826 197.0
124.0379 193.0
124.0769 391.0
127.0499 586.0
127.0872 161.0
128.9674 649.0
129.1015 5014.0
129.9627 731.0
130.0856 4459.0
130.9638 159.0
131.0704 331.0
131.0898 432.0
131.1164 355.0
132.0813 236.0
132.9633 2418.0
133.9666 179.0
134.9584 375.0
135.9644 242.0
136.0754 3383.0
136.9315 730.0
137.0790 348.0
139.0890 170.0
141.0661 472.0
141.1016 1702.0
144.0810 376.0
144.9633 1039.0
145.0619 486.0
145.9614 153.0
146.9741 207.0
147.1116 2121.0
147.9725 258.0
148.1157 207.0
150.9743 287.0
154.1229 256.0
154.9419 798.0
156.0794 244.0
157.0068 255.0
157.0955 1244.0
158.0927 717.0
158.9785 427.0
159.0892 1560.0
160.0267 359.0
160.0913 226.0
161.9870 231.0
162.9747 523.0
163.0972 329.0
164.0023 166.0
166.8687 246.0
167.9957 203.0
169.0563 259.0
169.0958 2808.0
170.0589 258.0
170.1001 404.0
171.0823 243.0
171.9743 988.0
172.0749 485.0
172.9502 281.0
173.0550 734.0
174.9543 258.0
175.0845 1079.0
175.1183 1885.0
176.0844 170.0
179.0926 586.0
181.0956 709.0
182.0116 151.0
183.1492 1873.0
183.9749 152.0
184.1498 214.0
185.1648 169.0
186.0840 416.0
186.1247 920.0
187.0698 563.0
187.1074 469.0
189.9847 555.0
190.0854 855.0
191.0874 219.0
192.9652 11408.0
193.0973 208.0
193.9692 2421.0
194.9620 4194.0
195.0760 1621.0
195.9648 323.0
196.0752 224.0
196.9590 1051.0
197.0982 217.0
197.9903 580.0
198.0856 337.0
200.1387 415.0
201.9848 1249.0
202.1074 223.0
203.9992 1521.0
204.1330 3894.0
205.1367 446.0
205.9636 186.0
207.0854 288.0
209.0905 1170.0
210.0780 168.0
210.0925 133.0
210.9758 8165.0
211.1435 237.0
211.9794 1587.0
212.1028 452.0
212.9727 3003.0
213.9744 235.0
214.1563 168.0
214.9701 732.0
215.9992 678.0
216.1001 240.0
217.0947 442.0
218.0826 339.0
218.9577 377.0
219.9891 266.0
220.9024 320.0
221.0946 730.0
221.8978 316.0
223.1140 133.0
223.8879 215.0
224.1061 211.0
225.0523 196.0
225.0973 313.0
225.9043 290.0
226.0745 253.0
227.9286 158.0
228.0907 164.0
228.9870 393.0
231.9742 330.0
234.0994 191.0
235.1055 4904.0
236.1085 884.0
236.9670 118.0
238.0818 162.0
238.9176 157.0
239.1120 917.0
239.1496 407.0
240.1328 670.0
241.1333 142.0
241.8992 649.0
242.1499 154.0
243.9128 208.0
244.0918 540.0
245.0915 247.0
245.8965 2052.0
246.8958 124.0
247.1270 445.0
247.8929 572.0
248.1299 142.0
249.0971 1500.0
249.9863 5188.0
250.0999 185.0
250.9895 651.0
251.9841 851.0
252.1227 189.0
253.9821 277.0
254.1133 225.0
254.1875 157.0
255.0083 238.0
256.0866 345.0
257.1595 2609.0
257.9353 369.0
257.9797 578.0
258.0121 242.0
258.0902 156.0
258.1443 3907.0
259.1475 593.0
259.6082 117.0
259.9060 184.0
259.9127 268.0
260.1975 187.0
261.8638 558.0
261.9924 289.0
262.9815 380.0
263.9077 3162.0
264.0037 496.0
264.9119 179.0
265.1343 185.0
265.9046 942.0
266.1155 661.0
267.1066 2245.0
267.9984 610.0
268.1133 395.0
268.9583 417.0
269.1247 249.0
269.9285 148.0
269.9731 163.0
269.9955 142.0
270.1034 128.0
271.9583 250.0
272.1223 3336.0
273.1256 660.0
273.8975 194.0
275.1186 497.0
275.1710 3003.0
275.9072 3130.0
276.1752 436.0
276.9151 519.0
277.9109 1181.0
278.4948 396.0
278.6701 592.0
279.1723 174.0
279.8721 621.0
279.9541 235.0
281.1002 233.0
281.9173 1743.0
282.1792 896.0
282.9219 169.0
283.1396 1508.0
283.1828 144.0
283.6610 160.0
283.9105 2327.0
284.1397 447.0
284.8990 127.0
285.9197 233.0
286.7974 353.0
287.9439 508.0
288.0340 139.0
288.9978 2587.0
289.9220 1789.0
289.9962 455.0
290.1433 115.0
290.9954 405.0
291.9188 487.0
293.9179 3103.0
294.9289 529.0
295.1053 396.0
295.9168 958.0
296.1485 1338.0
297.1474 592.0
297.1530 499.0
297.4674 973.0
297.6534 205.0
297.9679 231.0
297.9711 164.0
298.1364 286.0
298.4613 240.0
298.9714 308.0
299.2078 745.0
299.4494 282.0
300.1515 175.0
300.9282 4971.0
301.1141 753.0
301.4466 143.0
301.9204 1023.0
301.9299 245.0
301.9623 161.0
302.1209 110.0
302.9262 476.0
303.1474 174.0
303.9299 162.0
304.1654 115.0
304.8085 623.0
305.1547 119.0
305.9498 587.0
306.8062 207.0
307.0052 13957.0
307.9335 1443.0
308.0120 1808.0
308.4494 398.0
309.0070 1431.0
309.4484 119.0
309.9317 458.0
310.1320 131.0
310.8864 130.0
311.0058 202.0
311.9346 511.0
312.1521 338.0
312.8450 178.0
313.1134 475.0
313.8340 307.0
313.9243 175.0
314.1372 122.0
314.1566 174.0
314.9514 121.0
315.1649 1020.0
316.1722 178.0
316.4393 483.0
317.4507 364.0
318.4389 198.0
318.6659 547.0
318.9406 3697.0
319.1676 137.0
319.8664 148.0
319.9415 292.0
320.8781 1474.0
320.9405 334.0
321.2093 244.0
321.8666 919.0
322.8145 484.0
322.8724 561.0
323.2246 1749.0
323.9142 332.0
324.1333 393.0
324.1427 1581.0
324.2255 304.0
324.6351 212.0
324.8208 192.0
324.8795 132.0
325.1398 119.0
325.1519 320.0
325.4443 196.0
325.9493 260.0
325.9764 1006.0
326.1410 249.0
326.1949 192.0
326.4763 235.0
326.9770 292.0
327.1287 242.0
327.9762 144.0
328.1912 224.0
329.6233 163.0
330.8456 156.0
331.8413 349.0
332.9557 134.0
333.1401 1439.0
333.6483 975.0
334.1480 1112.0
334.4456 162.0
334.6519 401.0
334.9464 297.0
335.1484 173.0
335.9453 145.0
336.1342 148.0
336.9055 2211.0
337.1474 217.0
337.8333 1384.0
337.9061 178.0
338.1113 229.0
338.1769 374.0
338.8898 2583.0
338.9069 709.0
338.9769 136.0
339.2049 130.0
339.8793 968.0
340.1273 345.0
340.8851 1103.0
340.9820 171.0
341.1385 379.0
341.2375 1026.0
341.9221 653.0
342.1470 133.0
342.1545 155.0
342.2404 187.0
342.6575 843.0
342.8931 219.0
343.1579 507.0
343.1637 341.0
343.6626 125.0
343.9075 231.0
344.1536 328.0
344.9501 3442.0
344.9527 29538.0
345.4513 979.0
345.9497 1052.0
345.9598 3878.0
346.4520 327.0
346.9469 530.0
346.9516 3821.0
347.2276 340.0
347.4507 142.0
347.9547 156.0
348.9489 292.0
349.0242 148.0
349.8517 144.0
351.6374 160.0
351.8480 232.0
352.4203 129.0
352.9560 159.0
353.2188 373.0
353.4172 161.0
353.9584 557.0
354.1762 256.0
354.9170 450.0
355.1315 151.0
355.8431 3846.0
356.8435 161.0
356.9052 268.0
356.9180 113.0
357.8511 240.0
358.1345 947.0
358.8985 135.0
359.1289 145.0
360.1674 185.0
361.1809 935.0
361.6442 119.0
361.9107 192.0
362.1653 211.0
362.6546 940.0
362.9404 393.0
362.9649 4876.0
363.1539 359.0
363.1601 485.0
363.6605 136.0
363.9380 296.0
363.9686 524.0
364.1152 116.0
364.1609 142.0
364.6479 116.0
364.9331 158.0
364.9626 519.0
365.4273 582.0
365.8242 141.0
365.9367 161.0
366.4262 174.0
367.1967 1704.0
367.6525 170.0
367.8425 1814.0
368.1973 468.0
368.8438 160.0
369.1466 395.0
369.8131 182.0
369.8571 669.0
370.1698 176.0
370.1721 207.0
371.2346 179.0
373.6537 159.0
373.8536 3710.0
374.1770 950.0
374.6793 400.0
374.8650 157.0
374.9628 541.0
375.1791 136.0
375.4657 141.0
375.8560 194.0
376.1653 132.0
376.1710 1779.0
376.6543 670.0
377.1536 336.0
377.1774 378.0
377.6574 1675.0
377.8994 251.0
378.1510 1139.0
378.6960 5475.0
379.1935 367.0
379.1957 2747.0
379.6974 704.0
379.8770 182.0
379.9842 815.0
380.1938 194.0
380.9310 6453.0
381.1637 657.0
381.8603 1332.0
381.9251 239.0
381.9351 785.0
382.1632 151.0
382.1679 219.0
382.2409 517.0
382.6593 307.0
382.9239 241.0
382.9278 2519.0
383.1515 231.0
383.2413 148.0
383.6567 128.0
384.1519 278.0
384.9228 137.0
385.0143 125.0
385.6590 1301.0
385.8536 3474.0
386.1604 402.0
386.1625 619.0
386.6608 286.0
386.8490 199.0
387.1417 177.0
387.8645 696.0
388.2532 4011.0
389.1807 186.0
389.2582 1007.0
389.9009 140.0
390.2605 127.0
390.6689 311.0
391.1647 1090.0
391.1729 166.0
391.6633 1636.0
391.8613 154.0
392.1649 798.0
392.2245 124.0
392.6653 675.0
393.1361 132.0
393.1669 299.0
393.4428 150.0
393.6711 183.0
394.1660 289.0
395.1587 180.0
396.2238 581.0
397.2177 236.0
398.1675 315.0
398.6696 664.0
398.9410 4773.0
399.1618 648.0
399.2284 109.0
399.6700 1465.0
399.8696 1895.0
399.9475 511.0
400.1704 2240.0
400.6696 989.0
400.9423 1864.0
401.1755 343.0
401.6733 155.0
401.8737 115.0
402.1714 113.0
402.8329 207.0
402.9353 145.0
403.8648 1304.0
404.1648 3453.0
404.1952 297.0
404.6917 147.0
405.1475 116.0
405.1690 777.0
406.1753 125.0
407.6723 4294.0
408.1752 1783.0
408.6777 659.0
408.9055 428.0
409.1591 178.0
409.1635 201.0
410.1941 256.0
410.2372 1996.0
410.6939 134.0
411.2384 629.0
411.6762 162.0
412.1694 191.0
412.1845 792.0
412.6737 247.0
413.1822 188.0
413.1848 200.0
413.2544 117.0
415.8468 374.0
416.9089 514.0
417.2034 138.0
417.6544 192.0
417.8806 636.0
418.9064 355.0
419.1980 1063.0
419.7002 582.0
420.2035 254.0
420.6816 1349.0
420.8389 115.0
421.1796 919.0
421.2222 618.0
421.6829 1175.0
422.1643 131.0
422.1808 618.0
422.2275 167.0
422.6794 302.0
423.1636 139.0
423.1821 169.0
424.2161 2839.0
425.1872 186.0
425.2202 645.0
425.6663 150.0
426.1655 1238.0
426.2022 239.0
426.6655 991.0
426.8340 112.0
426.8839 263.0
426.8987 257.0
426.9743 108.0
427.1644 415.0
427.6637 162.0
427.8958 211.0
428.2452 611.0
428.8406 3747.0
429.2061 298.0
429.6857 4040.0
429.8508 255.0
430.1861 1710.0
430.6855 539.0
430.8394 343.0
431.1624 174.0
431.6885 124.0
431.8246 109.0
433.1951 745.0
433.6991 552.0
433.8556 1294.0
434.1855 498.0
434.6803 395.0
434.8639 127.0
435.1522 252.0
435.1714 880.0
435.6714 538.0
435.8476 149.0
436.1661 199.0
436.1883 133.0
438.1613 454.0
438.6731 148.0
438.6989 143.0
439.1750 180.0
439.1832 322.0
439.6738 264.0
440.1634 165.0
440.1773 913.0
441.1806 419.0
441.7086 229.0
442.2004 4653.0
442.2663 202.0
442.7017 4664.0
442.9232 353.0
443.1849 150.0
443.2050 2203.0
443.7061 710.0
444.1981 336.0
444.6902 135.0
444.8936 490.0
446.8534 1875.0
447.1755 417.0
447.7042 1168.0
447.8574 139.0
448.1966 1695.0
448.6792 829.0
448.8445 127.0
449.1801 321.0
450.1648 230.0
450.2316 257.0
450.4653 251.0
450.9691 154.0
451.4647 319.0
451.6987 2095.0
451.8690 122.0
451.9624 152.0
452.1780 196.0
452.2019 1066.0
452.4593 229.0
452.7049 334.0
453.1689 411.0
454.2277 229.0
455.1846 443.0
456.1809 2870.0
456.7048 3106.0
457.2007 925.0
457.2029 1788.0
457.6890 834.0
458.1839 380.0
458.2022 659.0
459.1968 123.0
459.2925 1331.0
460.1919 115.0
460.2954 407.0
460.6804 203.0
461.0206 578.0
461.1824 206.0
461.1987 273.0
461.6829 172.0
462.0239 117.0
463.0121 123.0
464.1840 137.0
465.1786 118.0
465.1845 3671.0
465.6891 1732.0
466.1890 556.0
467.2571 317.0
468.2479 187.0
468.7027 142.0
469.1906 946.0
469.1994 682.0
469.6846 974.0
470.1869 820.0
470.1967 357.0
470.6920 413.0
471.1856 210.0
471.2180 157.0
472.8659 3716.0
473.8677 360.0
474.8715 305.0
475.0363 186.0
475.0558 275.0
475.2231 1531.0
476.2170 496.0
477.2140 124.0
477.2189 119.0
478.1946 3542.0
478.6939 2044.0
479.1948 1284.0
479.6948 623.0
480.1985 327.0
480.6933 123.0
481.2012 227.0
482.1951 166.0
482.2354 261.0
483.1825 265.0
483.2161 345.0
483.7179 177.0
484.1576 240.0
484.2363 124.0
486.1931 121.0
486.2194 408.0
486.7242 288.0
487.1989 4527.0
487.7021 2346.0
488.2131 882.0
488.7327 898.0
489.2195 1251.0
489.7194 754.0
490.2195 278.0
490.2566 305.0
490.7217 127.0
490.8750 9751.0
491.2056 472.0
491.2638 125.0
491.6993 479.0
491.8788 1050.0
492.2049 269.0
492.8757 940.0
494.1947 138.0
496.2590 185.0
497.2409 5590.0
497.7396 5367.0
498.2336 187.0
498.2361 3101.0
498.7365 1121.0
499.2403 643.0
499.7397 236.0
500.1918 176.0
500.2084 2055.0
500.7078 1367.0
501.2063 459.0
501.7175 238.0
503.2767 101.0
506.2458 7134.0
506.4746 785.0
506.7497 5037.0
507.2283 6043.0
507.2533 172.0
507.3277 622.0
507.4747 333.0
507.7280 3556.0
508.2329 1335.0
508.3356 231.0
508.7417 365.0
508.8456 1369.0
509.1993 1032.0
509.2145 4043.0
509.7141 2137.0
509.8481 166.0
510.1956 287.0
510.2172 771.0
510.2341 238.0
510.7165 215.0
510.8408 542.0
511.2343 195.0
511.3422 181.0
511.7184 146.0
516.2394 373.0
517.2261 131.0
518.2170 483.0
519.2066 136.0
524.2784 221.0
524.2867 246.0
525.2700 244.0
526.2255 1538.0
527.2280 559.0
529.2317 312.0
535.1835 201.0
537.2368 165.0
538.2312 112.0
538.3373 288.0
539.3214 717.0
540.3157 219.0
544.2254 452.0
546.2573 7209.0
546.7950 128.0
547.2599 2597.0
548.2547 440.0
553.1932 188.0
554.2645 227.0
556.3379 9572.0
557.2232 143.0
557.3453 3784.0
558.3507 819.0
559.3531 162.0
562.2505 314.0
565.2585 243.0
567.2838 756.0
568.2731 353.0
582.2849 446.0
583.2877 221.0
590.2431 898.0
591.2503 402.0
592.2140 127.0
592.2654 164.0
593.2997 380.0
593.9411 141.0
594.2889 192.0
594.3017 257.0
595.2979 137.0
597.2742 118.0
600.7818 131.0
601.2520 264.0
606.2209 126.0
608.2619 234.0
610.2954 2124.0
611.3037 1013.0
612.3028 291.0
619.2666 255.0
620.2702 135.0
621.3042 154.0
622.2773 662.0
623.2816 249.0
625.2954 336.0
629.2528 218.0
639.3090 1416.0
640.3077 526.0
641.3151 138.0
642.3211 212.0
647.2653 1609.0
648.2671 584.0
648.2689 505.0
653.3565 426.0
654.3086 221.0
654.3184 172.0
656.3284 142.0
659.3444 2608.0
660.3419 1057.0
661.3422 300.0
665.2775 262.0
670.3844 2405.0
671.2502 297.0
671.3879 968.0
672.2573 134.0
672.3852 311.0
681.3033 156.0
681.3599 181.0
684.3195 302.0
722.2986 518.0
734.3042 398.0
735.2909 144.0
738.3434 199.0
739.3586 309.0
740.3399 139.0
741.4191 1703.0
742.4275 743.0
743.4164 290.0
747.3513 1434.0
748.3526 648.0
748.3530 571.0
749.3454 209.0
750.3354 220.0
751.3268 330.0
752.3257 259.0
756.3925 3500.0
757.3959 1526.0
758.3971 453.0
764.3117 281.0
764.3130 303.0
765.3195 172.0
767.3562 394.0
767.3647 332.0
768.3802 195.0
769.3436 162.0
770.3281 193.0
781.3415 485.0
782.3338 663.0
782.3406 353.0
783.3294 289.0
784.3287 178.0
784.3308 215.0
799.3426 414.0
799.3478 658.0
800.3412 279.0
802.4233 143.0
810.3239 268.0
856.4495 1474.0
857.4540 731.0
883.3937 367.0
883.4183 314.0
884.4055 283.0
884.4189 263.0
895.4396 305.0
896.4469 529.0
912.4245 259.0
913.4607 4245.0
914.4687 2470.0
915.4748 802.0
END IONS
BEGIN IONS
TITLE=Spectrum 1VLDALDSIK.csv DRIFT_TIME=17.6202 16.187 16.2544 17.9023 16.3019 16.4954 16.4337 17.4934 16.2947 18.237 16.3914 16.7747 16.4157 16.224 16.5184 16.8143 16.7596 16.6513 19.3668 17.983 16.5274 17.8549 16.7331 19.139 18.999 19.2102 17.0406 19.143 16.8655 16.7979 18.5998 16.8851 17.0041 19.6691 19.638 19.2428 19.2194 19.1757 17.9072 18.4124 16.7241 17.8568 17.8141 19.4521 17.2431 18.8255 17.0094 17.0905 20.3949 20.8585 21.9648 19.3311 19.6383 21.7506 19.1769 19.2935 21.0052 17.6935 19.0948 18.2754 18.164 20.5889 20.6222 17.9428 20.2403 21.33 21.6128 21.7623 18.7024 19.6478 22.3774 22.3558 21.8962 18.2583 22.3194 21.177 16.347 20.0253 23.5972 20.1394 20.0788 24.1065 19.955 20.0285 22.6255 21.9303 22.3927 21.4643 19.4138 21.3107 24.9746 21.3729 21.2094 22.1623 23.4698 19.9315 19.6225 16.2448 24.8065 19.8521 20.0028 19.7323 23.719 19.4515 22.9887 24.9498 26.1173 22.5036 24.8472 23.5649 25.9682 30.3146 25.3732 25.6799 26.3322 26.0179 26.2071 26.1756 19.7632 24.6478 24.9647 29.2937 25.5408 27.3897 22.1976 21.8879 31.1824 22.0223 22.0732 29.0627 22.78 21.8782 25.5339 30.2993 25.3643 29.831 26.2995 25.7824 32.1303 31.024399 27.5978 27.8972 23.832 23.6808 21.1264 34.0002 23.7573 21.731 34.3267 23.732 23.7087 23.4162 21.4802 27.3389 28.3054 31.980698 26.5129 16.5168 21.3489 33.7653 30.5426 27.509 33.691 31.586998 35.4181 16.8572 16.9996 16.5548 17.8499 24.0313 23.5949 16.6778 23.5624 23.6303 28.1196 16.7917 23.9301 23.4521 27.7158 33.2622 23.9894 29.1155 37.5859 31.459198 28.9571 32.3479 27.4554 37.2899 30.43 30.4633 33.5069 31.9823 17.1448 44.8337 23.9591 35.282 23.8427 17.0695 24.0483 17.0508 29.3255 38.2039 17.025 24.0951 40.0018 16.8224 23.8821 32.6799 39.7386 38.9718 17.2958 24.8198 41.2924 17.1153 29.0779 25.7659 27.4871 29.8418 17.0521 31.2928 17.0578 16.9015 30.9751 17.0729 28.995 31.351501 17.296 17.041 40.4767 39.8164 17.2746 17.4011 39.9612 17.2951 17.4775 37.6967 17.2791 42.5664 41.8526 29.0491 17.2227 37.0703 27.3991 40.022 29.096 17.4291 36.0134 18.263 37.4002 18.3572 28.7443 18.2144 18.0169 18.2713 44.7126 43.5226 17.5056 35.8524 17.729 17.5486 42.5175 29.1552 36.9565 43.9968 38.8367 28.6473 35.4972 44.4556 17.8014 35.4868 17.8969 17.7995 18.0717 29.8237 17.8415 34.319 45.0915 17.8411 45.3046 44.7092 26.5942 36.903 26.1255 26.2825 18.2285 47.99 26.2445 32.7033 48.6152 40.2903 37.6884 33.9052 50.2607 18.2579 36.2048 45.3526 19.1622 19.7084 54.1472 45.0655 54.0449 48.9657 26.5125 39.8372 49.693 26.6046 43.8746 52.3876 26.7554 26.605 32.9071 52.7943 36.9567 43.7661 25.9134 43.8828 42.7915 21.1993 57.1675 56.3315 33.2412 51.146 27.0016 51.3061 27.2385 47.0483 49.8443 26.4921 56.7363 28.4149 28.2721 31.2705 31.3032 52.0936 37.5918 51.8758 27.2004 44.9281 55.3055 59.1554 31.799599 31.742401 44.1576 31.911 25.8956 33.0313 50.059 32.981 33.0516 57.3274 32.542 49.2066 53.2321 58.4456 53.0318 55.8686 42.0834 55.7915 55.4619 29.2313 40.4527 28.9803 59.2171 58.053 58.5054 34.1934 58.1282 33.2191 58.2113 33.3283 33.4283 59.3296 33.2842 57.4013 39.485 32.4996 38.5358 61.599 62.9059 23.9547 59.8379 54.1764 59.378 34.0149 52.8107 61.3727 62.3098 35.2439 59.7975 33.3005 33.6096 24.759 24.9749 24.8644 64.2593 47.8287 32.3228 23.5797 69.1425 65.7119 61.7536 60.3303 21.8145 60.5749 23.0272 23.4905 23.3068 62.0682 61.8996 63.222 36.1312 62.122 33.4098 61.3442 67.4601 33.1116 69.7825 46.6382 66.0384 66.9242 66.6853 68.9178 70.3947 68.4572 65.8107 65.8355 65.2035 35.5616 37.098 76.4378 77.8703 80.9496 64.706 70.3651 80.464 46.1521 69.925 36.3663 71.9225 71.9373 71.6063 71.9176 68.1883 68.0391 68.1742 36.46 73.1061 77.7077 76.0238 80.6051 84.6815 80.7145 82.2474 82.8992 82.3576 82.885 89.6793 85.4917 82.3769 84.6375 87.3095 87.0658 87.5213 85.3905 82.0347 88.1093 87.5443 68.7503 88.1715 88.2978 88.7224 90.7721 92.2129 91.7982 98.3903 103.1562 103.9641 101.3879 104.9435 108.0848 109.8017 114.797 113.4056 114.3228 119.1495 122.9103 122.8143 121.0807 124.7653 129.1185 121.5879 137.0764 152.3795 153.0227 149.1791 146.24 
PEPMASS=487.2845
CHARGE=2+
102.9713 213.0
104.0710 470.0
110.0710 424.0
112.0080 728.0
112.1111 209.0
113.0710 184.0
114.0567 461.0
114.9947 1194.0
116.0344 529.0
116.9881 579.0
119.0489 151.0
120.0814 170.0
122.0811 1023.0
124.0381 243.0
127.0499 601.0
127.0873 314.0
128.1088 215.0
129.1026 1450.0
129.9645 669.0
130.0201 294.0
130.0873 3013.0
131.0052 268.0
131.0879 288.0
132.9612 3896.0
133.9626 345.0
134.9579 3957.0
136.0765 1206.0
136.9545 314.0
138.0918 276.0
141.0659 346.0
142.0183 220.0
145.0605 350.0
147.1133 1799.0
147.9737 236.0
149.9657 145.0
150.9716 1630.0
152.0034 313.0
152.9688 1735.0
154.1219 269.0
154.9676 142.0
155.0811 349.0
155.1191 392.0
156.1039 304.0
157.0061 198.0
157.0590 169.0
157.1338 790.0
158.0948 425.0
159.0771 2607.0
160.0290 2389.0
161.9944 201.0
166.8697 10816.0
167.9975 152.0
170.0143 188.0
170.8614 353.0
170.9783 144.0
171.1474 176.0
171.9752 597.0
173.0536 236.0
173.1306 644.0
175.0725 340.0
175.1193 1313.0
178.0394 1206.0
182.0165 138.0
183.0778 198.0
183.1140 544.0
183.1512 896.0
184.1550 127.0
184.8807 1695.0
185.0575 546.0
185.1283 750.0
185.1653 1632.0
185.9894 343.0
186.1705 228.0
187.0730 1634.0
187.9836 146.0
189.9859 287.0
190.9689 289.0
195.8945 16701.0
196.0043 131.0
196.8988 572.0
197.8928 274.0
197.9910 286.0
199.8872 693.0
201.0872 261.0
201.1238 917.0
201.9849 476.0
202.1273 125.0
202.8888 230.0
203.0676 755.0
204.0016 1026.0
204.8887 225.0
205.0008 210.0
205.9979 200.0
206.0355 168.0
206.0970 138.0
207.0753 140.0
211.0737 143.0
211.1580 150.0
213.1632 508.0
213.9046 9506.0
214.9058 322.0
215.9068 159.0
215.9997 343.0
217.9005 271.0
219.9893 180.0
222.8999 139.0
223.8877 15731.0
224.1056 977.0
224.8946 1103.0
225.1083 177.0
225.8892 408.0
226.0782 140.0
227.1381 600.0
227.8813 750.0
228.0948 138.0
228.1378 156.0
229.1182 2888.0
230.1221 400.0
231.9172 1809.0
231.9787 717.0
232.9776 266.0
233.9507 647.0
233.9726 271.0
237.1266 308.0
241.8989 34728.0
242.0478 428.0
242.1881 220.0
242.9049 4078.0
243.9010 1362.0
244.1671 291.0
244.9000 265.0
245.8937 2277.0
249.9889 2806.0
250.1499 113.0
250.9937 642.0
251.9640 1912.0
252.0974 178.0
253.9803 313.0
254.1513 207.0
255.1364 255.0
256.0930 301.0
258.8034 153.0
258.9161 201.0
259.8641 19674.0
259.9071 10674.0
260.1981 2534.0
260.8719 1797.0
260.9162 1159.0
261.1993 354.0
261.8619 21751.0
262.8677 1026.0
263.8613 1938.0
263.9069 643.0
264.0074 276.0
265.9400 131.0
266.8907 216.0
267.9992 320.0
268.9608 160.0
269.8984 522.0
269.9290 1221.0
269.9767 859.0
270.1088 256.0
270.1451 227.0
271.1318 158.0
272.1626 176.0
273.4660 133.0
273.9006 201.0
274.8978 136.0
275.1669 260.0
276.9306 119.0
277.8752 21453.0
278.4946 188.0
278.8823 2210.0
279.8716 22006.0
279.9621 313.0
280.4767 273.0
280.8786 1057.0
281.8728 2385.0
281.9811 250.0
282.1463 315.0
283.9110 919.0
283.9574 245.0
284.1942 183.0
284.9025 359.0
286.7977 1916.0
286.8994 110.0
287.9420 4352.0
288.1586 253.0
288.7932 183.0
288.9992 198.0
290.0262 434.0
292.0009 125.0
292.4417 162.0
294.1835 207.0
295.8885 5526.0
296.1660 114.0
296.8926 526.0
297.4691 1349.0
297.8852 6750.0
297.9704 309.0
297.9759 107.0
298.1427 1046.0
298.4684 404.0
298.8876 291.0
299.1448 181.0
299.4560 386.0
299.8822 556.0
300.0832 753.0
300.1560 1658.0
301.1525 315.0
301.4459 174.0
301.9206 309.0
302.1546 164.0
304.4325 145.0
304.8090 2825.0
304.8938 146.0
305.9531 4914.0
306.8030 298.0
307.0063 1155.0
307.0113 3425.0
307.5092 174.0
308.0074 235.0
308.0145 478.0
308.4538 432.0
308.8604 116.0
309.0110 408.0
309.4478 131.0
310.4537 142.0
312.1942 314.0
316.1527 1285.0
316.4421 1035.0
316.9546 309.0
317.1490 200.0
317.4492 642.0
317.9493 172.0
318.0954 526.0
318.4423 268.0
321.1582 617.0
322.1575 113.0
322.8192 2206.0
322.9401 135.0
323.9130 930.0
323.9661 175.0
324.1533 131.0
324.8211 264.0
325.4468 315.0
325.9114 175.0
325.9803 2760.0
326.0014 336.0
326.4818 703.0
326.8606 168.0
326.9785 933.0
327.4790 185.0
327.9773 373.0
328.1871 1070.0
329.2158 560.0
331.9444 265.0
333.9433 944.0
334.4550 302.0
335.9517 222.0
338.1856 415.0
340.8335 254.0
341.9238 1201.0
342.1636 297.0
343.1164 158.0
343.8173 125.0
343.9094 281.0
344.1516 214.0
344.9534 3689.0
344.9581 1154.0
345.4551 886.0
345.9521 955.0
346.4539 313.0
346.6865 155.0
346.9502 374.0
346.9522 133.0
347.2281 6872.0
347.4514 164.0
348.2343 1505.0
349.2366 271.0
351.8015 7427.0
351.9537 645.0
352.8084 405.0
353.8005 147.0
353.9572 405.0
355.1993 213.0
355.7985 273.0
355.8474 144.0
359.1965 206.0
360.1367 215.0
361.8699 446.0
361.9049 220.0
362.1584 148.0
362.9451 341.0
362.9694 120.0
363.1562 154.0
363.9372 149.0
365.4310 149.0
367.2398 190.0
368.0078 124.0
368.2208 250.0
369.1773 1060.0
369.8074 11658.0
369.9198 507.0
370.1843 297.0
370.8155 692.0
371.1171 449.0
371.2220 108.0
371.8151 276.0
373.8082 432.0
373.8617 143.0
379.1903 408.0
379.8795 1212.0
379.9840 125.0
380.8321 780.0
380.9361 239.0
382.9345 180.0
382.9445 157.0
383.2284 269.0
385.2521 240.0
385.8614 146.0
387.1887 1137.0
387.8237 5192.0
388.1916 239.0
388.8282 314.0
389.1327 515.0
391.2362 147.0
391.8149 208.0
393.2068 134.0
393.2079 258.0
393.7042 209.0
395.2129 1281.0
395.7166 585.0
397.1678 418.0
397.8911 351.0
398.1808 145.0
398.8412 333.0
398.9485 213.0
399.2295 250.0
401.2368 209.0
404.2191 1161.0
404.7216 484.0
404.9817 105.0
405.2246 136.0
406.6008 110.0
408.8215 9977.0
409.0143 939.0
409.8315 1242.0
410.8279 282.0
411.2222 285.0
412.8177 437.0
413.0044 115.0
413.1701 325.0
413.2466 240.0
414.1671 105.0
415.1839 3491.0
415.8514 193.0
416.1849 707.0
417.1922 212.0
417.6567 252.0
417.9369 766.0
418.1510 179.0
421.2294 149.0
422.2052 261.0
423.2181 121.0
423.7242 177.0
426.2376 103.0
426.8336 9840.0
427.2230 113.0
427.8413 1184.0
428.8388 308.0
429.2413 131.0
430.8338 430.0
431.1802 312.0
433.8608 287.0
435.7507 125.0
437.7348 129.0
439.2294 521.0
440.2399 123.0
441.4628 131.0
442.2200 141.0
442.9309 215.0
444.2468 642.0
444.8441 476.0
444.9877 116.0
445.2347 293.0
446.2405 113.0
446.8003 449.0
447.2663 110.0
447.6735 540.0
448.1746 272.0
450.4712 713.0
450.9729 221.0
451.4699 272.0
452.2406 141.0
453.1945 111.0
453.7668 238.0
454.1988 132.0
454.2649 212.0
455.2574 181.0
456.2150 368.0
457.1992 588.0
457.5038 159.0
458.1988 172.0
460.2048 454.0
460.5393 343.0
460.8724 122.0
462.2563 5559.0
463.2616 1550.0
464.2630 365.0
464.8161 199.0
466.2014 271.0
466.6414 173.0
467.1801 152.0
467.2714 264.0
471.7854 133.0
472.2727 299.0
472.8736 119.0
474.2258 327.0
478.2380 180.0
479.2331 320.0
480.2388 150.0
482.2648 497.0
483.2585 389.0
484.2049 2777.0
485.2064 791.0
486.2103 166.0
486.7664 203.0
487.2824 146.0
487.3648 862.0
488.3643 265.0
489.3132 2443.0
490.0632 115.0
490.2588 270.0
490.3227 566.0
490.8802 212.0
491.2693 190.0
493.7011 107.0
496.2521 3809.0
497.2603 967.0
498.2593 171.0
500.2699 178.0
502.2144 4011.0
503.2235 1024.0
504.2352 159.0
507.6925 118.0
510.2581 228.0
528.2691 556.0
529.2766 169.0
551.2771 165.0
552.2708 155.0
553.2737 424.0
554.2772 156.0
557.3376 197.0
563.2651 115.0
569.2924 488.0
569.3026 255.0
570.2834 239.0
570.2964 246.0
571.2956 140.0
575.3420 2260.0
576.3451 812.0
577.3571 183.0
579.2932 492.0
580.2797 370.0
587.3084 366.0
588.3080 161.0
593.9397 333.0
597.2974 7189.0
598.3041 2342.0
599.3071 433.0
607.2949 162.0
615.3049 738.0
616.3090 258.0
628.3660 158.0
646.3806 3422.0
647.3880 1409.0
648.3875 297.0
682.3867 126.0
692.3739 426.0
693.3799 243.0
710.3861 2328.0
711.3869 922.0
743.4035 571.0
744.3955 469.0
761.4022 7919.0
762.4077 3771.0
763.4150 906.0
763.4175 919.0
764.4044 166.0
764.4239 194.0
807.4310 419.0
874.4885 2345.0
875.4966 1273.0
876.4985 451.0
877.4977 142.0
END IONS
BEGIN IONS
TITLE=Spectrum 1YAAELHLVHWNTK_mz791.csv DRIFT_TIME=15.9011 15.920601 15.882 16.0032 15.937599 15.654301 15.8881 15.910301 16.0877 16.1285 15.9368 16.1882 16.1034 16.1134 16.111 16.1464 16.011 16.1138 16.1908 16.4903 16.068 16.1102 16.2375 16.2329 16.1984 16.3305 16.1861 16.2834 16.5631 16.3192 16.4594 16.4882 16.3175 16.4277 16.4229 16.8706 16.5081 16.4201 16.6152 16.751 16.8845 16.8502 16.4085 17.1963 16.897 17.9745 16.9222 17.1119 17.7402 17.1933 18.3811 17.5637 17.7905 17.9151 18.9737 18.215 18.7413 17.3781 17.2541 19.9359 17.3295 18.065 19.3566 20.0532 18.662 19.897 32.8878 20.9444 18.0621 19.1334 19.1888 25.9577 25.4967 22.4441 20.3938 21.968 18.1772 26.0876 19.3359 26.1783 19.3175 19.4181 34.9353 19.6152 18.7904 25.7546 16.5859 25.5069 23.9142 29.7046 22.4275 22.989 22.0375 21.2016 19.5677 30.7891 22.7512 27.7393 22.3066 26.759 21.3835 27.0421 21.165 21.4265 23.304 22.1015 31.271698 17.6178 27.1915 32.1333 20.2998 33.0331 24.8188 22.1816 26.1382 28.8261 28.8639 26.0643 33.5711 20.3442 17.7112 17.5842 27.1156 21.0169 35.2723 19.0782 26.7448 22.7911 33.4784 26.5164 21.6585 26.3693 26.5837 26.0435 26.8233 32.6118 27.9292 30.0369 16.629 27.2581 19.4211 27.2294 26.9989 26.8249 27.1315 26.6478 35.3727 29.281 35.0806 31.921501 31.913002 31.834702 23.8971 24.0411 29.8932 24.0764 29.555 29.1693 29.7246 31.938301 45.0394 31.8279 37.0449 44.8815 25.5819 24.3734 24.1105 37.3167 24.6898 37.5377 37.1666 33.5878 16.7963 33.7036 16.4986 29.3743 41.5915 26.0731 46.9758 25.1459 31.779602 31.8727 32.3002 16.795 16.8139 18.8535 22.0551 48.813 16.6667 16.7522 32.2862 34.8104 16.8949 27.266 16.9781 16.9922 16.9927 24.2587 27.8843 27.8974 28.7396 27.5248 44.1324 16.9814 37.1004 37.1411 23.4443 33.7032 20.1156 19.8641 45.6467 46.86 17.1852 17.0996 17.0509 26.2914 17.1076 17.0924 46.9061 28.8892 29.1516 28.992 21.1555 29.123 35.2702 17.2936 17.3316 17.3669 38.2953 38.2163 38.4159 38.6689 38.2184 49.4071 27.5072 38.0706 17.0224 17.57 39.7863 21.4765 17.2875 27.8654 17.4893 21.4557 38.4683 22.1808 31.771698 27.1924 31.8959 24.5134 24.1138 31.8138 24.2292 48.2564 31.881798 20.5105 32.0161 46.7052 31.2486 31.607101 17.6439 24.3318 17.9225 24.6294 17.5877 24.2006 17.6091 27.6184 27.5189 27.6666 34.6963 52.2904 52.9016 20.5615 20.1551 48.8859 60.7194 25.6537 51.0647 58.7624 17.5869 25.3988 25.3958 25.2003 25.1372 24.4906 49.7782 50.941 17.2469 17.8499 17.7652 17.9417 56.0234 35.615 35.6139 41.5537 35.9588 48.2209 28.2986 28.9817 33.96 18.8392 49.4128 34.2591 18.8351 50.1697 53.0029 33.693 52.6902 52.2118 29.7452 29.2467 17.583 17.6503 18.3786 44.274 43.9956 44.2021 43.3592 44.9637 28.7643 17.9509 17.9021 17.9844 56.0293 60.1671 34.0883 56.0229 18.2116 42.1127 54.8138 33.0157 33.1283 36.0637 33.1057 43.1126 42.45 30.546 18.9683 30.316 30.4779 18.5857 38.5896 23.8251 23.3186 32.1429 30.9521 31.221703 26.9662 26.6463 45.4582 26.85 45.2765 45.7256 35.3585 35.6927 42.8469 33.9425 33.6342 35.008 27.9835 34.1053 28.3407 34.219 37.3024 40.192 48.1739 47.7657 48.1263 47.6631 29.2988 29.1855 28.5884 42.7475 64.7816 42.7532 42.0124 34.3072 47.7284 34.2162 47.6563 46.2655 66.323 47.0198 43.8756 35.6981 36.1213 35.8181 36.0226 38.5058 50.3265 50.1206 50.545 72.4802 38.7549 38.4076 50.1773 69.6708 69.3052 69.2041 45.6165 39.2385 39.8963 39.8514 66.7924 38.6749 50.8841 67.9773 38.7362 38.471 39.3157 69.4067 39.9223 39.9558 39.816 39.5993 34.7528 35.8128 50.0655 71.1944 35.5532 70.9725 52.335 69.8132 51.0253 51.5446 51.4473 26.3698 52.4702 41.1293 38.9221 42.7127 44.1935 44.8579 72.7726 41.551 45.2405 45.3116 45.2218 45.0335 43.8783 43.6043 42.4369 42.5347 41.9118 41.4702 49.0652 49.5416 39.4351 50.0242 56.3393 42.319 42.4558 40.3953 41.0512 40.4093 39.7892 79.9439 54.5508 52.582 60.5191 59.3271 28.378 29.0563 50.6806 28.9041 29.0028 92.9604 49.8521 47.4504 29.4673 29.6502 29.2935 29.7807 29.3257 29.3458 29.5545 53.2788 51.5713 47.8825 49.6209 50.3011 83.6445 82.3201 83.7805 86.0626 44.3021 44.1974 44.9825 105.5883 43.162 53.051 99.7681 52.9486 53.0234 100.2291 52.9072 54.0172 47.4993 98.2646 115.3571 47.3525 48.2737 52.0635 51.1915 95.4528 57.5036 56.0411 91.0884 90.4962 91.5723 57.8431 58.1572 56.3908 39.8201 54.4026 54.4185 61.734 61.4096 102.0823 100.2215 103.1979 61.9786 62.2432 50.9798 77.6308 67.3063 67.3588 124.2859 123.3984 120.784 127.720795 146.319 141.5895 
PEPMASS=791.415
CHARGE=2+
55.0526 188.0
56.0469 611.0
57.0321 359.0
70.0611 1269.0
72.0768 742.0
74.0554 182.0
83.0551 241.0
84.0396 577.0
84.0754 1578.0
86.0911 650.0
91.0487 447.0
98.9686 188.0
102.0494 483.0
104.0626 858.0
110.0636 1722.0
119.0440 308.0
120.0737 580.0
122.0724 2121.0
129.0935 758.0
129.9565 263.0
130.0790 482.0
132.0713 205.0
136.0667 5769.0
137.0695 613.0
143.0716 380.0
147.1026 289.0
154.1119 498.0
159.0820 1162.0
160.0189 180.0
162.0821 326.0
171.1391 261.0
171.9655 403.0
173.0761 226.0
175.1075 279.0
187.1340 181.0
197.9788 191.0
199.0946 469.0
201.0743 483.0
201.9715 668.0
203.9876 842.0
207.0989 1754.0
208.0992 192.0
210.0139 822.0
215.1272 176.0
215.9869 340.0
223.1406 366.0
227.0895 433.0
228.1042 197.0
230.1355 362.0
231.9619 179.0
234.1132 166.0
235.0928 1945.0
236.0951 305.0
237.1179 165.0
243.1269 131.0
248.1456 1577.0
249.1484 274.0
249.9706 3232.0
250.9780 274.0
251.1342 560.0
251.9691 364.0
262.9656 239.0
272.1067 324.0
273.1093 139.0
275.8961 126.0
281.0820 132.0
283.2447 160.0
284.0918 147.0
287.9245 333.0
288.9810 549.0
291.9819 196.0
294.1946 242.0
295.1804 145.0
296.1299 248.0
300.9131 149.0
301.1030 138.0
305.9384 150.0
306.1261 574.0
306.9871 10436.0
307.1195 117.0
307.9920 1339.0
308.9866 1409.0
309.2627 128.0
309.9852 163.0
310.9801 356.0
312.1993 256.0
314.1390 106.0
314.1522 204.0
319.0310 268.0
323.2054 142.0
323.8908 562.0
324.1277 286.0
325.8914 228.0
333.9221 136.0
337.8130 139.0
340.1686 345.0
341.9025 487.0
343.1352 161.0
343.8982 229.0
344.1703 204.0
344.9338 2921.0
345.1536 452.0
345.9365 392.0
346.9284 318.0
347.9320 180.0
348.9296 291.0
350.1962 506.0
351.7741 315.0
355.0088 225.0
355.1746 123.0
355.8210 162.0
357.2264 358.0
359.9367 193.0
361.8442 207.0
361.9531 159.0
362.1794 2052.0
363.1832 385.0
363.9094 210.0
364.2154 158.0
367.8155 145.0
369.7682 119.0
369.8057 178.0
373.9471 142.0
377.8802 184.0
378.1882 149.0
378.7125 206.0
378.9195 479.0
379.8521 287.0
380.1723 238.0
380.9107 1596.0
381.8360 134.0
381.9128 248.0
382.9063 967.0
383.9083 171.0
384.9011 426.0
385.1803 136.0
385.8849 143.0
390.9769 141.0
393.9187 146.0
393.9246 139.0
396.7177 190.0
396.9284 168.0
398.9190 630.0
400.9211 426.0
402.9070 175.0
404.9527 176.0
407.1730 596.0
407.9326 177.0
408.1669 195.0
408.9820 5336.0
409.9891 781.0
410.9769 593.0
415.8222 2070.0
416.8229 157.0
416.8868 573.0
417.8235 218.0
418.8853 556.0
419.8756 141.0
420.8795 534.0
422.0976 1484.0
422.2707 338.0
423.1034 222.0
423.1920 229.0
423.2685 110.0
428.8175 287.0
433.8312 4302.0
434.8381 324.0
435.1602 1336.0
435.8316 339.0
436.1649 358.0
438.1636 272.0
440.1069 175.0
440.9107 140.0
444.9595 396.0
445.8401 268.0
446.9338 1775.0
451.2056 265.0
451.7994 597.0
453.2411 141.0
453.7768 347.0
454.8310 1016.0
456.8224 239.0
458.8711 159.0
458.8878 144.0
459.8795 126.0
461.6640 123.0
462.1236 159.0
463.2810 127.0
463.8292 213.0
464.8268 211.0
464.9580 120.0
466.0067 120.0
469.4126 1108.0
469.8130 140.0
469.9150 332.0
470.4163 307.0
471.4117 133.0
471.7842 273.0
472.8384 1727.0
473.8407 287.0
474.8380 251.0
476.8312 222.0
477.2007 137.0
478.9523 265.0
480.9343 542.0
481.9337 166.0
482.7191 127.0
482.9098 329.0
484.1362 357.0
484.6122 151.0
486.1669 108.0
487.2450 362.0
487.4002 1111.0
487.9002 393.0
488.3965 774.0
488.8096 125.0
488.8978 233.0
489.3996 229.0
490.2310 237.0
490.8489 2604.0
491.8461 445.0
492.8481 404.0
493.6664 146.0
494.8420 376.0
496.9236 386.0
497.9230 1392.0
498.4219 383.0
498.9190 337.0
498.9336 12670.0
499.9417 2721.0
500.9351 3318.0
501.9438 567.0
502.9271 796.0
503.2327 170.0
503.7424 162.0
503.9521 222.0
504.8481 141.0
505.3828 203.0
505.9629 108.0
506.1840 128.0
506.3800 267.0
506.8217 121.0
507.3785 161.0
507.6566 274.0
507.9671 163.0
508.1606 167.0
508.8132 2390.0
509.2404 129.0
509.8206 433.0
510.1852 345.0
510.6821 166.0
510.8105 2348.0
511.1866 121.0
511.2531 187.0
511.8127 604.0
512.6184 126.0
512.8086 1227.0
513.2279 152.0
513.8003 166.0
514.8048 304.0
515.9075 1230.0
516.1859 389.0
516.4104 338.0
516.6874 170.0
516.9033 563.0
517.1776 170.0
517.4037 220.0
517.7424 1412.0
518.2435 897.0
518.7459 345.0
518.8758 135.0
520.2422 375.0
521.2583 128.0
521.6200 819.0
522.1253 472.0
522.2328 226.0
524.2867 158.0
525.1882 5962.0
525.2451 107.0
525.2882 121.0
525.3587 124.0
525.6946 3680.0
526.1843 1837.0
526.6815 710.0
527.1840 297.0
530.1391 164.0
530.2341 166.0
531.2306 179.0
533.3644 932.0
533.8798 414.0
534.3658 255.0
534.8815 287.0
536.2681 187.0
536.8876 3351.0
537.8967 438.0
537.9607 168.0
538.8864 353.0
539.1998 112.0
543.7268 1342.0
545.7178 136.0
546.7610 1358.0
546.9068 163.0
547.0466 834.0
547.7565 143.0
547.9069 145.0
548.0411 139.0
548.2493 2128.0
548.7545 323.0
549.2516 682.0
550.2603 144.0
550.7390 218.0
551.2405 134.0
551.3492 267.0
552.3425 309.0
552.8701 186.0
555.9622 640.0
556.9536 154.0
557.9523 274.0
558.9488 120.0
559.9538 193.0
561.7369 515.0
561.8709 647.0
562.3763 198.0
562.8732 177.0
564.2729 185.0
564.2899 221.0
564.7705 331.0
566.2885 150.0
570.3239 133.0
570.9217 162.0
572.2098 105.0
574.2825 759.0
574.7847 423.0
574.8425 384.0
575.2755 226.0
575.8952 424.0
576.8785 144.0
579.7250 595.0
579.8621 261.0
580.2241 565.0
580.7258 279.0
580.8586 134.0
581.0381 155.0
585.6072 164.0
586.1095 155.0
586.2611 190.0
588.7219 142.0
589.2259 129.0
593.1550 448.0
593.6635 408.0
593.8989 15343.0
594.1676 271.0
594.9042 2590.0
595.9018 1521.0
596.7747 166.0
597.2681 145.0
597.9053 287.0
600.7440 1265.0
601.7568 205.0
602.7519 152.0
606.6983 189.0
606.8370 169.0
607.1973 131.0
607.3468 154.0
610.7619 176.0
610.8068 140.0
612.9722 1213.0
613.9812 220.0
614.9644 222.0
616.9618 127.0
620.7032 435.0
621.2044 257.0
621.7017 110.0
626.8450 1934.0
627.2805 156.0
627.8471 349.0
628.8425 520.0
629.7907 234.0
629.8787 1204.0
630.2906 232.0
630.8719 235.0
631.8602 610.0
632.3145 279.0
633.8777 211.0
635.8573 148.0
638.6885 148.0
638.7984 520.0
639.2955 425.0
639.7942 206.0
647.8277 107.0
650.9177 3507.0
651.9185 514.0
652.9192 373.0
653.3656 118.0
653.7869 190.0
654.2917 197.0
654.9196 121.0
657.3036 527.0
658.2945 209.0
663.3358 152.0
664.7725 152.0
665.3060 124.0
665.8060 203.0
666.2996 141.0
667.2889 188.0
667.7880 595.0
667.8281 203.0
668.2771 257.0
668.2887 590.0
668.7893 292.0
669.2920 144.0
673.3228 159.0
674.3123 1548.0
674.8169 1170.0
675.3170 520.0
675.8280 237.0
677.2359 160.0
677.7334 147.0
683.8613 211.0
685.2927 2654.0
685.7092 104.0
686.2952 1108.0
686.8918 946.0
687.2949 298.0
687.8896 123.0
688.8676 788.0
689.8696 214.0
690.5661 137.0
690.8581 195.0
696.3023 164.0
696.7913 121.0
700.4028 136.0
701.3242 154.0
701.8200 107.0
705.3574 154.0
709.3104 201.0
709.8244 1108.0
710.3285 841.0
710.8229 361.0
711.3308 127.0
712.8432 186.0
713.3442 188.0
718.3062 325.0
718.8153 266.0
719.3068 169.0
719.7906 122.0
721.8010 2041.0
722.7999 251.0
723.5493 117.0
723.8041 260.0
724.8428 173.0
725.8545 115.0
726.3575 173.0
727.3104 151.0
727.8150 152.0
733.7662 157.0
734.2681 161.0
734.3844 129.0
740.8717 365.0
759.7497 283.0
760.8054 179.0
762.8058 116.0
769.2624 234.0
769.6049 334.0
769.8882 150.0
769.9399 171.0
770.2627 114.0
770.3716 281.0
773.8437 144.0
774.3375 144.0
774.9369 423.0
775.2685 1279.0
775.6009 1148.0
775.9410 807.0
776.2685 427.0
776.6097 282.0
776.9330 158.0
778.8246 633.0
782.3483 291.0
782.3607 288.0
782.8509 461.0
783.3498 307.0
784.3633 1120.0
785.3613 500.0
786.3739 169.0
787.3502 205.0
789.6929 108.0
790.0193 172.0
790.3563 119.0
790.5348 125.0
791.0935 116.0
791.3510 5528.0
791.4942 503.0
791.8520 4942.0
792.3554 2699.0
792.5076 237.0
792.8569 942.0
793.3395 234.0
793.4352 1271.0
793.5028 360.0
793.5763 153.0
793.9424 1143.0
794.4463 652.0
794.9771 273.0
795.4776 201.0
795.4908 301.0
795.7195 205.0
797.7107 137.0
798.3648 622.0
799.3626 325.0
800.3744 197.0
814.8084 135.0
816.7733 274.0
826.4095 145.0
846.0060 121.0
847.9029 178.0
848.4076 229.0
852.7399 382.0
854.7324 174.0
897.4268 1380.0
898.4319 826.0
899.4297 255.0
904.4220 114.0
904.9383 161.0
906.8136 104.0
921.9631 118.0
939.4684 231.0
939.9507 143.0
1034.4808 1230.0
1035.4808 733.0
1036.4809 266.0
1036.4929 260.0
1147.5628 303.0
1148.5715 227.0
END IONS
BEGIN IONS
TITLE=Spectrum 1YGDFGTAAQQPDGLAVVGVFLK.csv DRIFT_TIME=11.2894 11.0708 11.1495 11.3452 11.2621 11.1312 11.3596 11.3537 11.394 11.241 11.2249 11.1512 11.3683 11.4485 11.3479 11.3924 11.332 11.4024 11.4466 11.3276 11.4431 11.4704 11.452 11.7623 11.5711 11.5771 11.7362 11.7586 11.7165 11.7283 11.8688 11.7976 11.7986 11.8816 12.0325 12.0923 12.1274 12.5461 13.0232 12.477 12.1462 12.2207 14.1426 13.4836 15.354 12.652 13.1897 15.652 14.2631 13.7055 17.6197 13.4985 16.0692 15.311401 16.2075 13.7373 13.6765 13.7052 13.6707 13.584 15.9016 16.8812 17.997 18.8381 19.5018 19.3661 15.219 15.103901 15.272701 23.0776 20.5703 21.7125 18.3173 21.4959 21.3042 18.7946 20.1769 18.6751 18.7463 24.0131 23.7019 19.0134 24.7418 19.2753 24.1321 25.8592 27.134 27.4592 16.9985 23.9368 21.1004 20.9039 24.6757 26.6495 25.2045 26.4215 27.2137 17.3979 17.5364 28.2999 17.2285 27.0234 28.3459 21.2516 28.0946 29.1974 22.8225 29.9299 28.9118 22.4032 28.5159 29.9858 24.7886 30.1968 19.7932 19.8772 30.3355 19.5864 30.0998 24.3893 30.8356 14.2446 31.309402 20.3674 20.5329 31.854797 20.3558 30.8811 32.1125 24.9296 12.0466 26.911 32.3027 27.0518 28.8136 28.036 39.4625 22.4992 32.8322 22.4678 22.5463 33.443 22.4543 35.6245 22.3018 33.6969 12.2873 37.2108 12.3299 34.8297 18.4298 37.3083 16.8191 16.4153 33.2541 34.1675 12.8526 12.6109 26.0952 25.3365 34.9656 16.2695 35.1252 35.3232 12.6724 35.3417 23.947 35.7705 23.7256 15.622799 36.5548 36.8568 15.178101 12.4094 13.0871 36.5129 12.834 13.1446 36.2884 13.2613 37.5211 31.2756 31.107101 36.5312 31.115501 37.0787 31.174599 31.0363 12.5448 37.2252 42.0385 17.487 42.2065 37.0078 41.6688 38.0333 16.6152 12.8329 13.7777 12.8235 13.8114 13.1426 13.5456 26.0856 32.7985 39.2365 39.7337 39.2279 13.2177 13.1474 13.2041 39.145 39.2007 13.0611 13.3313 13.2754 33.8271 39.6245 33.7636 41.5873 29.9625 40.5348 30.0479 40.5993 30.1092 41.3092 29.6632 30.0787 13.3385 13.3379 13.4219 13.3314 23.9313 13.1651 23.8872 13.1043 39.8195 24.0805 38.9622 23.6188 41.3063 41.5062 28.6906 34.1325 43.7457 34.2577 43.0859 34.0594 35.0571 12.8481 14.0881 34.7015 14.1195 14.0639 42.5299 14.005 13.8731 13.9196 14.2042 40.8765 41.7741 42.053 43.4097 43.8186 46.6594 29.1074 29.6747 33.08 32.3194 32.5838 32.4016 13.5642 14.5964 31.7667 14.6272 45.2341 14.8384 25.3699 44.0222 46.7305 45.6493 13.7178 13.7378 37.2263 47.0116 37.1114 47.003 35.7451 35.4005 46.3733 35.8284 14.1032 47.0392 15.3414 35.5508 46.233 15.2882 34.7681 15.0536 31.997498 31.5111 53.0329 29.2717 14.0363 52.9731 14.2101 47.0602 54.1066 14.103 46.8457 46.9612 47.6517 35.6975 47.2654 33.5552 21.8744 24.9206 48.3353 25.2616 48.9283 15.1064 24.14 48.9756 24.5406 24.0264 34.9472 50.5527 35.0664 49.8176 24.9854 35.0998 24.6689 24.9255 36.3634 35.1536 36.6932 26.3897 36.4834 26.4101 36.7329 25.5859 37.2197 48.9501 36.2261 48.7701 49.8142 50.1581 15.748901 15.6273 36.9289 51.101 50.6001 52.927 27.5338 50.996 51.3611 52.7077 51.2493 34.5433 39.9413 39.784 54.0345 38.7233 39.4462 38.5847 38.7094 39.0906 38.2117 38.7591 53.6287 56.3322 37.5678 42.9354 60.3051 36.8101 59.9222 43.0453 56.2302 54.5576 42.8613 56.906 56.874 37.9804 38.2972 59.4477 38.1963 56.3862 38.0576 56.5314 38.3599 58.4485 58.8108 59.7398 40.6219 40.2991 46.0413 59.4365 59.7035 45.2158 61.8134 61.3873 41.2428 41.1096 40.9914 41.1682 40.7515 42.3855 33.7351 33.3532 33.3825 68.0812 67.6463 42.2735 67.2902 64.0573 43.8735 44.142 43.7738 43.9735 43.7247 43.9417 43.262 42.077 46.7902 46.4457 46.4709 46.703 65.9445 42.5767 41.7056 69.6161 68.4361 50.9183 47.2293 67.3632 48.0801 47.0745 44.2137 45.5532 45.032 45.6755 44.6883 78.375 79.8379 45.1179 51.233 48.331 47.8896 48.6589 100.8141 99.0973 51.8913 49.7589 49.7268 48.6853 77.0396 49.4623 80.4482 53.3282 49.3506 54.0355 54.4058 51.3028 54.8969 54.4541 53.4195 137.2718 136.2905 139.6998 124.1956 
PEPMASS=1127.0825
CHARGE=2+
56.0481 352.0
57.0324 221.0
70.0627 331.0
72.0791 412.0
84.0416 351.0
84.0765 685.0
86.0942 298.0
88.0355 145.0
101.0663 334.0
104.0666 807.0
110.0674 146.0
119.0459 214.0
120.0755 2223.0
121.0808 207.0
122.0760 1708.0
129.0976 387.0
130.0827 390.0
136.0707 2141.0
137.0754 298.0
141.0600 374.0
147.1095 240.0
157.0924 197.0
171.1077 176.0
171.1445 160.0
171.9673 313.0
192.0943 137.0
193.0945 203.0
200.0950 258.0
201.9764 779.0
203.9892 177.0
205.0927 283.0
212.0944 435.0
213.0878 216.0
215.9946 378.0
219.1068 141.0
221.0811 327.0
230.1072 197.0
235.1029 535.0
239.1048 193.0
240.0915 229.0
249.9814 905.0
251.9769 185.0
256.1571 187.0
257.1171 191.0
260.1892 761.0
262.9779 399.0
263.0740 137.0
264.1271 165.0
270.1013 364.0
271.1255 148.0
288.1257 432.0
288.9893 608.0
295.1340 123.0
304.1567 161.0
306.1342 285.0
306.9967 14710.0
308.0020 2245.0
308.9944 2158.0
310.0026 237.0
310.9932 425.0
311.1254 161.0
320.1110 160.0
328.1546 130.0
331.1650 149.0
336.1073 1747.0
337.1116 332.0
344.9476 1360.0
345.9446 164.0
346.9493 211.0
355.1908 411.0
359.1588 228.0
362.1225 373.0
371.0567 130.0
372.1767 111.0
377.1363 206.0
380.9231 1182.0
381.1314 218.0
381.9277 173.0
382.9154 620.0
383.1798 379.0
392.1362 234.0
398.9317 423.0
399.1832 137.0
400.9291 186.0
403.1456 175.0
407.1532 229.0
407.2533 1766.0
408.2585 497.0
409.0027 354.0
411.1863 148.0
416.8958 454.0
418.8961 519.0
421.1641 177.0
426.2318 289.0
429.2004 244.0
430.1967 274.0
432.1824 142.0
434.9092 1944.0
435.9132 169.0
436.2107 146.0
436.9022 141.0
438.1589 191.0
446.2004 147.0
446.9474 204.0
448.2027 308.0
454.2192 1132.0
454.8396 157.0
455.1982 380.0
456.2176 163.0
456.8519 137.0
460.1710 451.0
464.1777 166.0
466.0218 347.0
466.2157 340.0
472.8534 1803.0
473.8564 222.0
474.1848 238.0
474.8549 193.0
478.1761 358.0
482.9233 137.0
483.1705 156.0
484.1371 124.0
486.1935 251.0
490.8646 2727.0
491.8728 272.0
492.1912 143.0
492.8639 327.0
494.2099 406.0
495.1860 208.0
496.9351 275.0
497.9431 203.0
498.9466 348.0
500.2314 136.0
500.9450 130.0
501.9883 211.0
503.9917 187.0
506.3229 477.0
508.8272 5937.0
509.1959 279.0
509.8351 844.0
510.8259 3466.0
511.2474 150.0
511.8291 336.0
512.2225 216.0
512.8245 425.0
513.1929 199.0
515.9231 248.0
516.3017 129.0
516.9211 278.0
522.2190 184.0
525.2111 117.0
525.2906 450.0
530.1546 258.0
530.6549 128.0
531.2062 524.0
532.2097 175.0
534.9070 316.0
535.8956 220.0
536.9060 403.0
538.8918 123.0
539.2456 152.0
539.6890 258.0
540.2051 468.0
541.2146 177.0
543.3608 142.0
545.2225 108.0
546.7789 507.0
547.2100 160.0
548.7722 227.0
549.1280 153.0
549.2141 439.0
550.2109 147.0
551.1212 119.0
552.3649 137.0
552.8834 364.0
553.2801 1492.0
553.3716 140.0
553.8854 413.0
554.2876 439.0
554.8868 193.0
555.2938 141.0
555.9711 3853.0
556.9773 1098.0
557.2555 201.0
557.9717 1202.0
558.2489 176.0
558.9749 218.0
559.9632 315.0
561.8920 259.0
563.2259 116.0
563.3396 2644.0
563.6774 192.0
564.3408 866.0
565.2467 756.0
565.3391 174.0
566.2208 297.0
566.6432 134.0
570.3565 219.0
570.8756 217.0
571.3440 286.0
571.8682 386.0
572.3484 163.0
572.8558 245.0
574.8555 217.0
575.0524 249.0
576.2568 207.0
577.2402 115.0
578.2127 251.0
579.8859 280.0
580.8766 366.0
581.8663 152.0
582.2689 261.0
583.2842 124.0
588.3361 201.0
589.3249 185.0
590.3253 186.0
591.9561 401.0
592.2646 172.0
592.9526 121.0
593.2814 163.0
593.9222 5290.0
594.2683 160.0
594.9297 1134.0
595.2470 144.0
595.9198 836.0
596.2223 239.0
596.9179 137.0
597.9157 196.0
598.8529 687.0
599.3506 249.0
599.8495 589.0
600.3553 205.0
600.7612 8183.0
600.8505 329.0
601.7664 1110.0
601.8565 186.0
602.2448 300.0
602.7638 926.0
603.2548 167.0
604.7542 224.0
605.2370 142.0
610.3080 222.0
610.8313 134.0
612.9922 4000.0
613.2473 247.0
613.9975 965.0
614.2544 128.0
614.9940 897.0
615.9964 169.0
616.3031 181.0
616.8438 556.0
616.9820 209.0
617.3427 255.0
617.8366 687.0
618.2400 131.0
618.3423 248.0
618.8328 394.0
619.3284 172.0
619.8276 160.0
620.2528 410.0
621.2565 204.0
622.2631 265.0
623.2308 677.0
624.2313 247.0
624.3589 142.0
624.8536 214.0
626.8568 228.0
629.9046 180.0
631.8679 577.0
632.8765 182.0
633.8802 299.0
634.2957 129.0
635.8202 315.0
635.8672 142.0
636.8137 227.0
637.2632 119.0
637.8170 150.0
638.7105 248.0
639.2812 118.0
641.2408 559.0
642.2451 151.0
644.8168 229.0
645.8129 130.0
648.9691 1180.0
649.2429 409.0
649.9790 296.0
650.2434 230.0
650.9439 3154.0
651.9423 653.0
652.3488 736.0
652.9415 721.0
653.2844 119.0
653.3523 270.0
653.7971 180.0
653.9383 134.0
654.3341 136.0
654.7956 210.0
654.9286 221.0
655.7926 121.0
656.6738 138.0
658.6736 110.0
662.4060 1768.0
662.8023 211.0
662.8083 339.0
663.4053 817.0
663.8031 316.0
664.3112 306.0
664.4149 243.0
664.8010 189.0
665.3170 170.0
666.2703 210.0
667.2634 312.0
667.8481 131.0
668.2638 205.0
669.8377 150.0
674.6427 118.0
676.2279 152.0
676.2715 253.0
676.7246 120.0
681.3453 312.0
681.7868 185.0
682.1708 307.0
682.3418 137.0
682.6804 139.0
683.1651 174.0
683.8786 4465.0
684.2766 228.0
684.8877 1197.0
685.2947 107.0
685.7315 186.0
685.8818 1543.0
686.2328 138.0
686.7386 114.0
686.9056 692.0
687.8866 366.0
688.8925 1505.0
689.7777 368.0
689.8916 340.0
690.2832 263.0
690.8944 426.0
691.7082 132.0
691.8918 108.0
692.3185 111.0
692.8915 152.0
693.2972 279.0
694.2679 787.0
695.2645 375.0
699.7653 154.0
700.7636 117.0
705.8003 179.0
709.3687 537.0
710.3446 358.0
711.3624 155.0
711.7845 145.0
712.2737 757.0
713.2850 290.0
720.2854 134.0
721.2930 116.0
721.8348 372.0
724.8692 354.0
726.8595 203.0
738.2815 134.0
740.8977 3566.0
741.7571 274.0
741.9051 778.0
742.9039 683.0
743.7577 167.0
743.9090 130.0
744.9008 189.0
748.2930 122.0
755.3235 149.0
759.7785 345.0
760.8489 377.0
761.4665 696.0
761.7941 135.0
762.4749 360.0
762.8319 343.0
763.3771 122.0
764.3288 125.0
764.8481 113.0
765.3065 538.0
766.3067 280.0
778.8476 2402.0
779.8552 561.0
780.4136 233.0
780.8424 551.0
781.3902 164.0
781.8529 120.0
782.3462 114.0
782.8493 221.0
783.3189 388.0
784.3169 300.0
792.3508 104.0
795.7635 227.0
797.7400 267.0
798.7983 111.0
800.3280 266.0
801.3267 122.0
802.9385 132.0
808.4304 490.0
809.4154 256.0
814.8252 495.0
815.8328 111.0
816.7947 1258.0
817.7953 213.0
818.8054 328.0
820.8010 171.0
826.2862 512.0
826.7900 410.0
827.2915 217.0
832.5015 640.0
833.4997 315.0
833.7104 169.0
834.5110 139.0
837.4275 103.0
850.7890 155.0
852.7712 1704.0
853.7718 358.0
854.7650 996.0
855.7690 242.0
856.7695 311.0
869.6718 155.0
887.6751 126.0
888.7327 351.0
890.7259 435.0
891.7297 177.0
892.7241 242.0
893.3574 180.0
906.7431 315.0
908.7550 115.0
911.3590 314.0
912.3658 176.0
924.7243 107.0
926.6963 280.0
928.3887 184.0
928.6881 319.0
930.6896 195.0
942.7410 149.0
944.7033 1233.0
945.7180 240.0
946.7009 238.0
948.7055 118.0
955.4936 210.0
956.4969 148.0
961.6160 166.0
968.7803 122.0
980.6796 408.0
982.6606 402.0
984.6602 135.0
1002.5995 363.0
1003.6046 245.0
1016.6638 125.0
1018.6227 544.0
1019.6339 114.0
1020.6181 306.0
1022.4015 177.0
1022.6063 160.0
1039.4468 262.0
1054.5952 153.0
1072.6005 142.0
1092.5521 139.0
1094.5671 123.0
1110.5583 179.0
1128.4806 144.0
1129.0064 137.0
1129.4696 139.0
1214.6702 987.0
1215.6776 855.0
1216.6819 314.0
1325.7081 290.0
END IONS
