BEGIN IONS
TITLE=Spectrum 1AVVQDPALKPLALVYGEATSR.csv DRIFT_TIME=11.2327 11.0954 11.2467 11.2877 11.3053 11.2152 11.1838 11.2084 11.4142 11.3938 11.2818 11.3057 11.3742 11.3868 11.5282 11.4278 11.4115 11.3939 11.4783 11.526 11.5514 11.5259 11.8005 11.3961 11.4941 11.4749 11.7034 11.3977 11.4483 11.4203 11.9249 11.5248 11.4513 11.7193 11.8121 11.6564 12.5227 14.1219 17.1185 18.1917 18.5355 18.7349 19.783 19.599 22.0086 21.8057 24.3672 22.8668 23.5215 23.061 27.9159 23.9961 24.9667 27.7432 28.0495 25.3452 25.4582 26.1132 27.9044 27.8524 27.7657 27.2752 30.0183 28.5944 30.5956 30.0181 31.5904 36.677 31.654099 31.364899 33.9093 33.2061 36.3793 32.7224 32.7422 33.7856 33.6913 39.35 35.1352 35.3433 35.7897 39.5579 36.8741 38.6908 38.4086 40.9501 39.9485 42.0241 41.5286 41.3496 41.8689 49.6152 42.0647 49.1924 44.9139 44.5869 37.6797 45.2386 47.3066 47.689 45.9689 48.1845 47.5861 49.2 55.0482 50.2078 50.0648 53.8564 59.5954 58.9422 59.0429 60.6569 60.3877 73.5988 72.7011 77.0844 86.8976 87.4537 96.957 97.1824 116.8032 133.2865 133.1303 137.1663 130.0772 131.6484 138.8693 142.99 137.6125 158.8496 162.9964 155.9872 
PEPMASS=1099.615
CHARGE=2+
55.0526 297.0
56.0479 492.0
57.0322 253.0
70.0621 1812.0
72.0771 3474.0
73.0814 196.0
84.0399 658.0
84.0760 934.0
86.0913 324.0
101.0677 244.0
104.0655 689.0
117.0986 205.0
122.0753 1485.0
129.0962 1314.0
130.0955 183.0
136.0705 166.0
141.0957 842.0
143.1111 1001.0
154.1164 182.0
169.0886 1831.0
170.0923 193.0
171.1050 1060.0
171.9689 306.0
172.1056 186.0
175.1121 426.0
181.0537 228.0
183.1406 188.0
185.0708 278.0
185.0898 292.0
196.0536 206.0
197.1557 422.0
198.0775 160.0
199.0638 175.0
200.1320 205.0
201.9769 575.0
203.9912 173.0
211.1381 189.0
242.1749 668.0
254.1747 137.0
282.1700 1100.0
283.1776 155.0
327.1875 138.0
343.1462 2975.0
344.1495 525.0
353.2118 176.0
355.1874 134.0
369.1895 150.0
384.1710 138.0
394.1554 339.0
395.1482 468.0
395.2513 391.0
397.1924 531.0
398.2215 406.0
410.2584 2604.0
411.2638 620.0
412.1645 797.0
413.1713 139.0
414.1823 173.0
434.2196 1217.0
435.2191 324.0
438.2557 123.0
442.2119 300.0
452.2705 318.0
466.2058 119.0
467.2348 173.0
468.2277 250.0
494.2043 147.0
494.3101 360.0
495.2388 340.0
496.2261 201.0
497.2554 192.0
507.2417 159.0
507.3114 140.0
511.2310 536.0
512.2317 174.0
513.2476 1889.0
514.2509 558.0
523.3507 168.0
525.2477 761.0
526.2540 215.0
539.2638 246.0
551.3337 167.0
563.2640 182.0
567.2849 199.0
579.2434 114.0
581.3119 214.0
582.2942 166.0
596.2978 182.0
610.3013 390.0
611.2975 129.0
620.2762 968.0
620.3887 149.0
621.2728 356.0
622.4014 150.0
624.3137 443.0
625.3235 177.0
633.0779 109.0
635.3294 149.0
653.3347 200.0
663.3242 153.0
664.3019 147.0
681.3312 1036.0
682.3338 517.0
683.3308 107.0
691.4171 193.0
695.3527 292.0
696.3516 130.0
766.3175 106.0
783.3346 1169.0
784.3338 472.0
785.3343 143.0
794.4027 660.0
795.4142 335.0
882.3949 712.0
883.3939 406.0
903.5633 131.0
995.4833 514.0
996.4803 324.0
1066.5154 534.0
1067.5164 296.0
1179.5932 271.0
1276.6286 3319.0
1277.6329 2238.0
1278.6401 809.0
1278.6501 856.0
1279.6454 292.0
1404.7235 691.0
1405.7425 479.0
1406.7389 252.0
1685.8885 606.0
1686.8793 651.0
1686.8983 556.0
END IONS
BEGIN IONS
TITLE=Spectrum 1DFPIANGER_01.csv DRIFT_TIME=16.4366 16.0668 16.1296 15.9522 16.1348 16.3723 16.0212 16.3292 16.3657 16.299 16.1896 16.1564 16.1464 16.1072 16.4333 16.1523 16.3531 16.1059 16.0457 16.4886 16.1854 16.2811 16.2977 16.2125 17.9579 16.0404 16.0131 16.5339 16.2991 16.7011 16.0351 16.3732 16.2228 16.5265 16.1835 16.614 16.2637 16.5027 16.2424 16.5538 16.9455 16.5128 16.4427 16.504 16.5172 16.4946 16.6506 16.2569 16.4465 16.3097 16.2334 16.4799 16.4185 16.6821 16.5521 16.7076 16.8373 16.5955 16.9013 16.6262 16.8732 16.5744 16.4824 16.6092 16.7425 16.2777 16.6438 16.6755 17.2056 16.6546 16.8199 18.5099 16.7381 19.3351 16.7173 16.7993 17.8106 16.8006 17.6295 17.0892 17.4887 16.8521 16.8362 16.8052 17.021 17.0958 17.1398 16.8267 16.7905 18.158 18.2876 17.9338 17.8886 18.6295 17.5159 17.1394 17.8614 17.0721 17.1975 18.6513 17.5717 18.1964 17.5603 17.5171 17.2569 19.0292 17.2014 18.0792 18.1215 18.3299 18.4372 18.6563 17.9348 18.4628 18.5383 18.6872 17.5982 18.5492 17.2752 17.7869 17.382 17.4934 17.2737 17.5105 17.9576 18.5166 19.4338 18.8512 18.7492 18.8277 18.7924 18.7414 18.8859 18.4407 18.2679 18.2221 18.2693 19.0391 18.0341 18.6576 19.1025 18.3347 18.8041 19.0551 18.5764 18.6705 20.7183 19.1509 20.8341 19.4879 19.69 19.6526 17.9569 20.7519 18.9054 19.0028 18.8734 18.9546 18.8686 18.8662 19.9725 20.0648 19.2964 24.4505 25.3642 20.5004 20.8615 18.6702 18.7492 19.148 19.6988 19.6983 20.0398 19.107 19.6615 19.8557 19.297 19.4946 19.279 19.3982 19.5006 22.3458 22.1117 19.8251 19.7123 24.1029 20.7182 19.0377 20.5497 26.9279 21.364 22.4665 20.4716 19.4691 20.0814 19.3812 19.4312 19.6168 19.7082 19.8789 24.8777 21.8069 21.3988 21.4441 21.3296 24.3832 30.0549 22.7771 23.2063 29.8744 22.2643 24.2363 30.4601 22.3411 23.5182 28.1852 23.7466 27.4421 22.5334 22.7172 24.0853 24.1619 27.5235 23.9838 24.2862 31.378601 23.1151 32.1553 27.4747 22.5149 26.5264 24.8378 25.366 28.5065 29.1278 29.0623 30.9679 30.828 32.0891 32.5273 33.6049 26.989 26.4873 31.624802 26.439 26.5433 26.0902 26.4414 35.3372 34.6036 25.6404 33.5019 32.9412 27.1773 27.1363 27.1788 27.1938 26.8573 32.2196 32.2868 36.5945 30.3461 30.138 29.5991 39.4733 39.2974 42.3266 42.0537 40.9887 37.5353 34.772 38.0728 40.8703 39.3237 39.7386 34.1466 38.606 41.299 40.9521 40.9311 48.9659 47.0242 47.1484 44.5156 51.64 69.2718 78.3511 45.9292 50.1078 52.8794 46.9565 46.7062 52.0096 62.1432 46.6802 62.7853 63.392303 46.2169 46.2961 46.3898 46.6357 48.2511 39.4897 51.3482 51.6041 51.4097 51.7659 49.9901 48.5227 43.6891 59.4841 52.6559 59.7124 59.8349 59.8188 53.8634 54.8836 62.319 61.5918 61.8489 62.9135 63.858 65.1735 65.206 64.2994 70.6629 69.8454 70.053 72.2694 69.328 68.4604 75.3138 78.4957 80.6284 83.9872 84.7375 86.6097 82.2471 78.174 77.831 77.6431 76.9445 76.7598 92.0995 102.3397 102.1087 104.0015 
PEPMASS=509.754
CHARGE=2+
102.9662 194.0
104.0699 1945.0
110.0690 3779.0
111.0731 700.0
112.0865 174.0
114.9513 479.0
116.0709 314.0
116.9479 489.0
116.9863 765.0
118.9454 595.0
120.0792 4029.0
121.0830 469.0
122.0798 4600.0
123.0840 279.0
124.9903 171.0
129.1014 1009.0
129.9629 1006.0
130.0638 1695.0
131.0634 243.0
132.9559 161.0
134.9597 180.0
136.0745 1062.0
136.9521 187.0
137.0804 225.0
141.0220 141.0
141.4591 429.0
144.0797 243.0
144.9625 169.0
147.1114 340.0
147.9713 223.0
150.4671 160.0
152.0022 686.0
154.1218 336.0
157.0040 383.0
158.0906 579.0
158.9775 469.0
159.0898 660.0
160.0261 941.0
160.0949 159.0
163.9996 378.0
166.8676 221.0
167.9949 259.0
169.0963 254.0
169.1296 185.0
170.0092 190.0
171.1488 242.0
171.9728 1707.0
172.0730 576.0
175.0838 1510.0
175.1170 1704.0
176.0833 255.0
178.0387 198.0
179.0946 228.0
182.0120 160.0
183.1473 2927.0
183.9723 301.0
184.0262 177.0
184.1515 456.0
185.9893 1137.0
187.9660 223.0
189.9816 399.0
190.0845 1532.0
191.0857 242.0
192.9647 420.0
194.9608 2788.0
195.0746 172.0
195.9635 644.0
196.9572 2225.0
197.9887 1076.0
200.0702 179.0
201.9821 1722.0
202.8893 367.0
202.9908 426.0
203.8877 146.0
203.9985 1294.0
204.1311 1027.0
204.8852 310.0
205.1359 327.0
210.0798 297.0
210.9792 171.0
211.1405 640.0
212.9701 891.0
213.9769 218.0
214.9685 599.0
215.9977 1045.0
217.0941 703.0
218.0801 433.0
218.9562 286.0
219.9772 421.0
220.8986 331.0
221.8983 462.0
222.8963 271.0
223.8870 377.0
226.0743 560.0
227.8782 136.0
227.9287 226.0
229.1171 161.0
231.0098 163.0
231.9754 2028.0
233.9498 312.0
235.1039 7524.0
235.9521 157.0
236.1078 1299.0
237.1104 186.0
239.1144 267.0
239.9319 229.0
241.8947 348.0
243.9262 180.0
243.9785 288.0
244.0869 212.0
245.0883 243.0
245.8951 5200.0
245.9902 191.0
246.8987 403.0
247.8928 2036.0
248.8955 143.0
249.0945 352.0
249.8888 284.0
249.9851 4204.0
250.0946 165.0
250.9919 518.0
251.9780 1008.0
252.9857 188.0
253.9793 426.0
255.0115 156.0
256.0834 343.0
257.1485 171.0
257.9363 600.0
258.0055 264.0
258.1450 261.0
258.8055 137.0
259.1435 187.0
259.9125 1015.0
261.9132 290.0
261.9888 450.0
262.9812 701.0
263.0934 188.0
263.9056 2788.0
264.0013 3867.0
264.9077 169.0
265.9042 1113.0
265.9308 1127.0
267.1038 484.0
267.9009 157.0
268.1073 267.0
269.1196 160.0
269.9260 271.0
270.1050 132.0
271.9225 217.0
271.9596 226.0
272.1259 170.0
273.1226 207.0
273.9863 329.0
275.1179 155.0
275.1670 157.0
275.9052 5815.0
276.9130 618.0
277.9057 2562.0
278.9060 187.0
279.9047 341.0
279.9490 505.0
281.0978 357.0
281.9186 484.0
282.1338 218.0
282.1810 308.0
285.1255 144.0
285.9163 387.0
286.7936 2993.0
288.7918 396.0
288.9978 1413.0
289.9214 3081.0
289.9873 512.0
290.9277 440.0
290.9929 467.0
291.9178 1234.0
291.9955 922.0
292.9876 159.0
293.9152 2265.0
294.8297 209.0
294.9224 289.0
295.9143 970.0
296.1488 333.0
297.1519 169.0
298.9655 459.0
299.9622 148.0
300.1523 133.0
300.9260 8290.0
301.9246 919.0
302.9238 1006.0
303.1478 152.0
303.9266 169.0
304.1581 132.0
304.9164 304.0
307.0036 17331.0
307.9315 729.0
308.0099 2369.0
309.0036 2617.0
309.9320 266.0
310.0069 209.0
311.9280 140.0
312.1505 437.0
314.9508 256.0
318.9389 2812.0
319.9404 217.0
320.9324 283.0
323.1197 116.0
323.2235 2493.0
323.9102 955.0
324.1435 290.0
324.2267 779.0
325.0792 152.0
325.1462 189.0
325.2225 140.0
325.8994 222.0
326.1427 151.0
326.1992 323.0
327.1356 173.0
328.1793 158.0
333.9425 138.0
334.9411 449.0
336.9034 2565.0
337.9085 268.0
338.1778 429.0
338.9011 1365.0
339.9066 150.0
341.2330 818.0
341.9209 850.0
342.2355 221.0
343.1567 212.0
343.9182 270.0
344.1533 280.0
353.0441 194.0
354.9154 252.0
360.1537 132.0
361.1804 1460.0
362.1857 235.0
367.1916 345.0
368.1916 238.0
376.1681 321.0
377.1735 272.0
379.1860 205.0
379.9787 489.0
380.9275 10756.0
381.1664 153.0
381.9319 1487.0
382.9263 5733.0
383.9303 739.0
384.9255 1216.0
388.2516 178.0
389.2628 177.0
390.9546 186.0
396.2179 167.0
397.2139 147.0
398.9397 3912.0
399.9431 453.0
400.9359 1984.0
401.9383 176.0
402.9347 306.0
404.1653 589.0
405.1683 509.0
411.2468 104.0
416.9047 543.0
418.9011 518.0
420.8997 139.0
421.2178 688.0
422.2152 177.0
424.2121 450.0
425.2204 405.0
426.2167 144.0
441.1695 191.0
442.9223 462.0
450.1592 249.0
452.2209 119.0
458.1946 542.0
459.1993 169.0
463.0060 184.0
475.0526 646.0
475.2222 2131.0
476.2189 665.0
478.1592 117.0
488.2758 129.0
490.2620 286.0
496.2505 318.0
508.1544 158.0
508.3213 291.0
508.4678 145.0
508.5697 181.0
509.2399 120.0
509.2521 109.0
509.3225 139.0
510.2472 307.0
511.2276 262.0
511.3384 444.0
511.3946 551.0
512.2326 136.0
512.3928 190.0
513.4045 342.0
518.1567 210.0
528.2459 118.0
529.2336 416.0
530.2275 144.0
535.1786 300.0
536.9143 113.0
546.2542 10830.0
547.2561 4208.0
548.2584 900.0
549.2593 196.0
553.1955 332.0
554.1867 109.0
555.9842 324.0
556.3417 315.0
557.2245 209.0
557.3432 588.0
558.3478 637.0
559.3425 157.0
590.2543 139.0
591.2421 279.0
610.2901 312.0
611.2910 576.0
612.2999 335.0
627.3115 111.0
642.3156 166.0
647.2552 229.0
648.2656 403.0
649.2654 241.0
659.3400 4763.0
660.3406 1883.0
661.3315 527.0
669.3237 149.0
671.3886 138.0
672.3779 194.0
739.3693 445.0
740.3725 214.0
743.4197 168.0
747.3535 189.0
748.3518 527.0
749.3105 142.0
749.3450 163.0
755.2621 112.0
756.3864 6849.0
757.3895 2828.0
758.3900 849.0
759.3886 158.0
858.4416 200.0
914.4548 168.0
915.4708 544.0
916.4689 311.0
END IONS
BEGIN IONS
TITLE=Spectrum 1DGPLTGTYR.csv DRIFT_TIME=17.4815 16.4741 16.8377 16.6403 19.1236 19.5589 17.081 16.8046 19.4156 18.9148 18.4435 17.1543 20.7802 22.0734 18.1014 20.4259 21.5154 22.0096 22.3662 17.9873 20.1655 21.4004 19.828 25.935 22.4085 24.0784 25.3506 26.1386 19.4917 22.1953 22.4179 21.7596 21.8085 25.1924 30.1446 26.0311 23.62 21.3098 34.1486 23.6391 22.3218 23.725 23.4907 34.146 30.1309 23.6524 23.4516 23.7197 24.0201 23.8247 24.2655 29.007 27.2344 38.1374 33.2087 38.6981 28.8362 27.6012 31.358002 39.0804 29.1275 37.9343 45.8334 36.222 36.6928 35.5712 45.1735 45.8578 36.5379 48.4116 37.0805 51.9159 49.1334 55.9181 61.8061 62.5847 66.0442 65.9995 77.4965 81.8288 81.3709 71.8209 70.052 67.9858 66.8373 89.1097 89.3022 89.1121 102.6378 103.9326 112.3397 117.1854 121.0644 121.7383 119.8557 151.2669 
PEPMASS=490.2485
CHARGE=2+
114.9965 168.0
122.0807 161.0
129.1018 170.0
130.0851 458.0
132.9617 634.0
134.9587 549.0
136.0764 165.0
147.1120 264.0
150.9726 207.0
152.9725 236.0
157.1340 142.0
159.0754 393.0
160.0282 365.0
166.8670 1585.0
175.1170 156.0
178.0401 216.0
183.1455 126.0
184.8781 262.0
185.1689 225.0
187.0710 258.0
195.8922 2512.0
203.9994 180.0
213.9052 1338.0
223.8864 2319.0
224.1025 131.0
224.8939 132.0
227.8823 123.0
229.1176 472.0
231.9186 261.0
241.8888 5309.0
242.9039 618.0
243.8987 199.0
245.8947 399.0
249.9868 461.0
251.9626 269.0
251.9826 151.0
259.8619 2761.0
259.9087 1606.0
260.1994 448.0
260.8700 299.0
260.9167 197.0
261.8575 2960.0
263.8616 293.0
269.9279 133.0
269.9780 148.0
277.8704 3233.0
278.8797 361.0
279.8688 3241.0
280.8791 145.0
281.8721 326.0
283.9112 149.0
286.7962 251.0
287.9409 652.0
298.1419 159.0
300.0855 147.0
300.1559 282.0
304.8089 416.0
305.9532 789.0
307.0080 571.0
316.1521 182.0
322.8220 309.0
323.9125 148.0
328.1881 167.0
333.9408 184.0
341.9273 211.0
344.9561 221.0
347.2274 1103.0
348.2272 171.0
351.9490 113.0
369.1717 167.0
379.8798 210.0
387.1915 118.0
409.0029 140.0
415.1844 583.0
462.2576 826.0
463.2603 221.0
484.2082 432.0
485.2049 133.0
487.3705 125.0
489.3085 324.0
490.3064 111.0
496.2561 563.0
497.2583 169.0
502.2212 588.0
503.2301 142.0
575.3421 417.0
597.2976 1094.0
598.3104 350.0
646.3780 508.0
647.3843 235.0
710.3846 365.0
711.3986 164.0
761.3965 1303.0
762.3987 535.0
763.4193 188.0
874.4816 494.0
END IONS
BEGIN IONS
TITLE=Spectrum 1EPISVSSQQMLK.csv DRIFT_TIME=15.956001 16.0413 16.063 15.976 16.1912 16.1036 16.2214 16.5056 16.2146 16.1891 16.1416 16.1904 16.2072 16.5419 16.2187 16.724 16.484 16.1887 16.7123 16.3742 16.5896 16.514 16.5196 16.4102 16.4382 17.2503 17.1039 16.5982 16.6831 16.7214 16.6928 16.7248 16.5497 16.2964 17.0038 16.7175 16.4215 17.056 18.6427 17.3752 17.0061 18.5871 18.7516 17.7808 17.111 17.9683 18.504 17.3742 18.9584 18.8646 18.9648 16.8903 21.8662 22.1669 17.0296 18.2031 16.9322 17.9541 19.6119 20.5139 20.5819 19.0502 21.2986 17.1434 24.731 19.8001 19.3502 18.7052 18.8721 18.564 19.0161 20.4654 20.1904 25.4793 25.1843 23.219 21.6638 25.7751 18.6785 23.3995 24.3028 19.4262 23.8821 19.3711 19.2967 34.0937 19.2125 19.4744 19.4256 19.1379 19.4984 24.7308 23.3053 26.2528 24.4205 22.7586 22.238 20.2124 22.1505 20.8872 27.934 30.0332 22.8738 23.0048 26.6706 21.6601 21.3561 21.2861 27.2768 22.3356 29.2269 22.229 22.2635 29.6344 22.685 35.1185 32.5356 26.3736 26.4961 31.446602 31.645699 26.3343 26.3982 26.4729 26.2236 25.7013 31.641502 32.3085 37.7795 32.4242 36.9801 31.3275 36.9214 26.9049 27.0403 26.5835 26.4446 26.5549 31.8252 33.0362 33.0677 33.2436 30.2095 25.7036 29.7375 29.6432 38.654 29.5553 31.011002 29.928 36.7608 35.741 36.6397 36.5077 34.4327 29.5596 36.4667 42.1239 31.556198 31.993698 44.1086 43.8134 49.0811 49.3779 35.9613 43.12 45.721 45.9515 33.4912 33.1941 32.9966 43.9641 43.1801 44.2172 44.2616 43.8191 54.009 54.2062 47.5512 38.8074 38.8871 38.3005 54.1617 50.137 47.9671 54.3316 32.0264 32.525 32.1668 32.5592 32.1994 37.9074 54.1465 54.5869 38.0706 50.4935 37.4174 49.6757 47.9451 34.2415 48.8356 40.8715 52.3561 34.3259 44.3517 44.6301 43.891 44.0901 52.2542 52.8141 59.4214 55.0022 59.7219 47.9248 44.6823 46.0134 56.0924 45.1087 56.7295 58.1084 47.9116 59.717 57.0971 65.8221 48.2453 67.3043 67.1892 67.5261 50.1402 67.5006 65.4018 75.4635 72.9985 70.1469 78.4012 90.8405 78.9948 76.9053 93.9259 70.9149 70.0305 52.6514 49.7197 75.1323 81.0873 81.0887 80.6447 77.7516 54.0804 83.7462 85.034 91.5172 87.6901 94.1323 93.3684 94.6413 93.9324 101.1297 114.0444 111.8778 112.6281 100.6577 116.2686 116.6358 116.0473 115.6199 136.4382 137.5005 138.5704 
PEPMASS=673.856
CHARGE=2+
101.0694 293.0
102.0530 730.0
104.0679 401.0
110.0688 441.0
114.0876 285.0
122.0786 1036.0
129.0989 401.0
129.9631 163.0
130.0836 1030.0
136.0737 190.0
147.1087 587.0
154.1221 336.0
159.1091 890.0
160.0262 565.0
171.1444 285.0
171.9726 489.0
173.1237 495.0
175.1150 177.0
178.0327 160.0
181.0929 2076.0
182.0977 205.0
183.1082 901.0
183.1459 717.0
184.1097 207.0
187.0985 214.0
195.9987 189.0
197.9929 188.0
199.1028 866.0
201.1207 259.0
201.9807 914.0
203.9929 339.0
209.0868 2910.0
210.0899 478.0
214.8834 386.0
215.9968 525.0
216.0937 199.0
216.8799 353.0
219.9892 195.0
223.1532 137.0
223.8870 314.0
227.0973 394.0
233.9473 1987.0
235.9449 573.0
240.0959 210.0
241.8955 521.0
245.8938 192.0
248.1573 311.0
249.9840 1579.0
251.9564 2188.0
253.9536 688.0
257.1191 160.0
259.8651 171.0
260.1898 1099.0
261.1989 161.0
261.8577 1015.0
262.9786 501.0
263.8527 277.0
264.9716 136.0
266.8935 150.0
269.9230 914.0
271.9194 529.0
274.1324 281.0
276.1660 143.0
279.8672 550.0
280.1593 203.0
284.8949 125.0
285.1139 150.0
286.7903 1040.0
287.9352 1469.0
288.7867 357.0
288.9925 597.0
289.9277 373.0
290.0169 253.0
294.1775 573.0
295.1746 141.0
298.1707 240.0
303.1213 113.0
304.1457 159.0
304.8009 766.0
305.1003 126.0
305.9012 147.0
306.9987 16178.0
307.8950 151.0
308.0054 3165.0
308.9995 3880.0
309.2695 123.0
310.0022 825.0
310.9980 1946.0
312.0010 271.0
312.9943 210.0
314.9937 133.0
319.0415 127.0
320.1471 146.0
322.1707 601.0
323.1156 122.0
323.9050 1527.0
324.9097 126.0
325.8839 2035.0
327.8930 162.0
338.9895 191.0
340.1808 341.0
341.2407 167.0
341.9170 1263.0
342.9180 174.0
344.1575 226.0
344.9514 1304.0
346.9508 168.0
348.9389 148.0
355.0169 386.0
361.8565 3994.0
362.1951 251.0
362.8730 277.0
363.8561 1581.0
364.1878 108.0
364.8596 117.0
369.2723 212.0
373.1817 203.0
379.9764 148.0
380.9259 1210.0
381.2064 854.0
382.2096 190.0
382.9253 545.0
384.9202 257.0
385.9150 110.0
386.9138 169.0
390.9598 127.0
390.9983 179.0
391.1888 4027.0
391.2338 869.0
392.1938 1040.0
392.2349 219.0
393.1929 117.0
393.2302 119.0
398.9378 434.0
400.9405 192.0
404.9768 1283.0
405.9747 316.0
406.9695 288.0
409.0077 103.0
409.1986 2361.0
410.2029 578.0
411.2068 111.0
416.9009 458.0
417.8329 156.0
418.8993 382.0
420.8952 122.0
423.2308 126.0
424.8904 120.0
425.0026 137.0
426.9298 176.0
427.2130 518.0
428.2165 143.0
431.1776 531.0
432.1878 120.0
444.9815 160.0
446.9528 699.0
450.1493 397.0
451.2190 308.0
454.8530 344.0
456.8495 182.0
462.2641 1067.0
463.2735 347.0
464.3315 609.0
465.3365 248.0
466.0221 175.0
475.1902 138.0
480.2673 473.0
481.2788 155.0
482.9292 686.0
483.9369 111.0
484.9158 196.0
486.2228 307.0
489.2196 165.0
490.2546 1675.0
491.2572 502.0
492.2613 137.0
492.3630 3440.0
493.3651 913.0
498.2786 134.0
498.9585 374.0
499.9533 157.0
500.9584 200.0
501.2702 154.0
502.2624 362.0
508.2664 310.0
508.2699 284.0
508.8376 1716.0
509.8495 180.0
510.8335 577.0
514.8303 229.0
516.8287 244.0
518.9066 304.0
519.2889 907.0
520.2901 341.0
520.9026 171.0
530.2439 128.0
536.9089 213.0
545.1969 179.0
546.0830 193.0
546.7825 634.0
547.0589 215.0
548.0089 275.0
548.2701 248.0
548.7793 198.0
555.9774 2583.0
556.9792 568.0
557.9787 622.0
559.9822 124.0
562.2200 670.0
563.2043 166.0
564.3112 190.0
577.2935 228.0
588.2681 110.0
591.9570 332.0
593.9278 1001.0
594.9425 146.0
595.2946 562.0
595.9357 199.0
596.2994 237.0
599.2699 153.0
613.0000 254.0
613.3057 115.0
617.2758 186.0
629.3351 144.0
629.9052 156.0
630.3201 261.0
647.3354 681.0
648.3459 255.0
650.9495 409.0
658.2841 134.0
661.2849 131.0
673.3919 540.0
674.3908 180.0
675.2981 348.0
675.3598 263.0
675.5140 143.0
676.3750 128.0
677.4652 185.0
677.5287 229.0
685.3328 261.0
686.3300 124.0
686.9190 138.0
721.8302 247.0
730.3268 168.0
734.3710 1784.0
735.3720 747.0
736.3756 278.0
748.3016 192.0
778.8708 159.0
784.3902 214.0
785.3790 153.0
803.3945 176.0
804.3785 314.0
821.3935 6499.0
822.3987 3440.0
823.4051 1146.0
824.4001 418.0
897.4661 209.0
920.4645 1465.0
921.4676 948.0
922.4600 352.0
938.4459 136.0
1007.4916 3506.0
1008.4946 2212.0
1009.4969 974.0
1010.4975 300.0
1120.5810 632.0
1121.5838 519.0
1122.5828 272.0
END IONS
BEGIN IONS
TITLE=Spectrum 1HNGPEHWHK.csv DRIFT_TIME=15.9293 16.0083 16.0215 16.0648 16.4228 16.1752 16.4725 16.0584 16.0357 16.2186 16.1514 16.1295 16.378 16.1793 16.5028 16.176 16.7438 16.0942 16.1802 16.2855 16.0236 16.3809 16.8613 16.6761 16.3176 16.6511 16.7613 16.2096 16.3428 16.3951 16.2529 16.3909 16.262 16.4808 16.6467 16.7962 16.237 16.6376 16.8029 16.4934 16.4826 16.6778 16.252 16.9224 16.3701 16.9194 18.3993 16.7795 18.4617 16.8003 16.5777 17.1885 16.9182 17.5392 16.7867 18.136 16.6518 16.1589 17.3155 16.7004 16.8713 16.7098 16.3729 17.9162 16.3694 16.9318 16.9265 17.0396 17.0806 17.0398 17.3049 18.0461 17.728 17.139 16.992 16.9399 16.8438 16.5431 17.1266 17.0544 18.0974 17.2828 18.3204 17.155 17.3427 16.2111 16.9613 18.9377 17.4546 17.4245 17.0735 17.6057 17.1922 19.7878 16.8319 17.4835 18.4072 17.96 18.4332 17.5482 18.4095 17.4172 17.3431 19.7604 17.3228 17.9465 17.4363 17.9497 17.5632 17.5989 19.8758 21.9958 18.2666 22.0372 18.1648 18.765 19.7994 18.9439 19.4555 18.6142 20.5496 20.7576 20.5024 20.7879 22.786 22.8292 20.5036 22.1771 21.7097 22.8084 23.6775 22.7911 22.9223 29.0194 22.8002 23.6426 25.8947 27.6083 28.5763 31.5102 28.6692 28.9898 34.2431 34.2589 26.4839 26.6818 26.5838 38.2738 26.1665 26.612 26.1463 40.2241 40.7511 35.1364 29.537 27.0799 27.0637 27.3387 35.0453 27.6497 38.5188 38.2893 32.1047 32.0511 31.947601 29.9541 39.1191 29.9983 30.1842 28.7213 30.7457 33.115 29.7724 31.1656 39.0257 37.2432 57.4521 36.9055 31.8741 32.7481 33.1583 32.2386 32.9124 33.4041 33.1873 33.1877 38.3341 42.7128 61.1606 32.2462 35.4409 42.7803 43.2384 36.755 50.4968 51.2233 47.1263 35.7667 36.1604 38.2731 38.5665 38.3778 40.3657 38.2921 40.9964 56.0156 55.6387 37.0922 37.0412 52.4869 42.3588 49.2919 45.8512 46.2046 46.487 41.1331 44.7685 43.9867 41.3588 52.0217 42.2015 55.0705 52.7522 53.0768 53.04 43.692 44.0355 59.3793 59.4728 59.8102 56.0986 50.8357 69.537 73.1374 54.5043 64.1387 72.0671 43.6372 63.843597 59.2162 61.471 67.3338 43.0832 57.9605 59.3985 46.4931 59.7166 63.786804 52.2269 45.6904 45.9713 45.0588 45.2329 53.2127 61.7422 53.7636 61.4998 48.1165 60.0206 63.7546 48.7212 67.1756 61.4727 49.9491 50.6327 49.8987 59.7328 74.9025 74.9294 74.8099 61.8083 61.3038 73.0748 73.0697 71.1133 70.7665 52.4378 52.4419 67.4407 68.7665 68.0171 86.1925 75.9659 84.9415 84.7942 83.9323 88.997 83.6941 83.7551 85.7231 85.6198 80.1984 84.3213 84.4801 87.0353 89.6163 95.9951 97.5092 95.4183 100.694 105.1613 104.1203 108.8176 109.8464 106.8669 110.0726 107.5164 125.7581 
PEPMASS=571.271
CHARGE=2+
101.1041 145.0
102.9681 155.0
104.0693 722.0
110.0706 6776.0
110.9730 322.0
111.0710 561.0
112.9888 210.0
115.0214 198.0
119.0471 457.0
120.0788 3539.0
121.0830 414.0
122.0802 1884.0
124.9894 348.0
129.0997 1970.0
129.9629 1708.0
130.0842 1246.0
130.8915 209.0
132.0769 211.0
136.0738 2975.0
137.0764 345.0
141.4585 2409.0
141.9638 278.0
143.9773 211.0
144.9614 252.0
147.1111 719.0
147.9722 349.0
148.9025 219.0
150.4637 1062.0
154.1239 274.0
155.0915 183.0
156.0728 301.0
157.0946 601.0
159.0882 840.0
160.0269 623.0
160.8989 232.0
161.9874 394.0
162.0658 160.0
164.0003 279.0
166.8673 863.0
167.9937 1152.0
171.1465 285.0
171.9706 5281.0
175.1162 318.0
176.8917 664.0
178.0484 379.0
183.9715 1317.0
184.8316 326.0
185.9884 323.0
186.8268 353.0
189.9819 1212.0
195.8923 279.0
197.9862 1426.0
199.9951 195.0
200.8493 362.0
201.9800 10775.0
202.8465 211.0
203.9961 4854.0
204.4093 148.0
204.8825 8481.0
204.9990 371.0
205.9591 631.0
207.0844 1007.0
210.0219 238.0
210.0744 185.0
213.9126 785.0
214.9531 246.0
215.9954 5285.0
218.0123 1125.0
218.9529 1553.0
219.9881 1348.0
222.8953 3328.0
223.1527 275.0
223.8860 1554.0
224.1104 672.0
224.8931 802.0
225.1135 144.0
226.9433 188.0
228.9270 132.0
228.9928 642.0
230.0110 345.0
230.1416 177.0
231.0069 1252.0
231.1465 285.0
231.9765 842.0
232.9649 488.0
233.9234 181.0
234.0050 328.0
234.1161 177.0
234.9856 806.0
235.0797 838.0
236.9647 203.0
240.9049 374.0
241.8966 1936.0
242.1829 147.0
242.9034 456.0
243.0080 400.0
245.8956 194.0
246.9832 281.0
247.1411 448.0
247.9691 833.0
248.1540 740.0
249.9822 16507.0
250.9881 2221.0
251.1470 479.0
251.9812 2570.0
252.1068 2330.0
252.9843 190.0
253.1021 597.0
253.9775 517.0
255.0073 397.0
256.1632 267.0
260.1931 1495.0
261.0177 161.0
261.1970 252.0
262.9787 6837.0
263.9063 142.0
266.1583 871.0
270.9842 552.0
274.1532 167.0
275.9076 206.0
284.1678 2380.0
285.1722 432.0
289.9856 524.0
291.1184 348.0
292.1647 126.0
296.1442 253.0
300.9260 166.0
304.1601 359.0
309.1316 304.0
323.9070 3121.0
324.1396 542.0
324.9146 251.0
325.9043 1166.0
330.1895 161.0
334.9463 103.0
336.9077 242.0
342.1493 131.0
345.1727 135.0
347.2231 133.0
350.2159 174.0
362.2012 623.0
363.2000 179.0
364.2310 160.0
375.2319 187.0
380.9260 7958.0
381.9336 817.0
382.9254 1597.0
383.2829 175.0
383.9292 177.0
384.9233 268.0
385.8638 161.0
387.2374 529.0
388.2355 152.0
389.2166 126.0
391.0024 124.0
398.9386 2643.0
399.9390 287.0
400.9358 498.0
403.2324 194.0
406.9700 160.0
407.2596 2090.0
408.2654 474.0
409.0000 9888.0
410.0088 1178.0
411.0014 1043.0
416.9021 10619.0
417.2414 221.0
417.9084 1131.0
418.9008 1306.0
419.9065 144.0
420.9446 306.0
421.1826 117.0
424.9206 322.0
425.9802 213.0
434.2278 154.0
435.1822 188.0
436.4060 546.0
438.1816 120.0
441.9400 808.0
442.9248 1197.0
443.0054 2575.0
443.9364 598.0
444.0111 480.0
444.9915 1274.0
445.9932 196.0
446.9886 551.0
452.1058 135.0
452.2348 117.0
454.4197 228.0
456.8490 157.0
466.0285 474.0
470.2418 888.0
471.2535 216.0
480.9549 132.0
488.3227 229.0
489.3116 108.0
490.2577 203.0
496.9454 1137.0
497.9491 336.0
498.9595 5443.0
499.9665 1024.0
500.9586 1239.0
501.9987 1764.0
502.9658 250.0
503.0099 201.0
506.3276 625.0
507.3210 202.0
513.9259 697.0
515.9230 169.0
516.3128 156.0
518.1961 201.0
522.2703 224.0
532.0756 254.0
533.0801 137.0
534.0699 185.0
534.9357 566.0
535.2154 598.0
536.2172 159.0
537.9775 993.0
538.2816 368.0
538.9751 149.0
543.2913 135.0
546.2560 140.0
548.2723 843.0
549.2825 287.0
555.9893 184.0
558.0253 370.0
563.3473 5481.0
564.3512 1877.0
565.3496 456.0
570.2938 328.0
570.3030 427.0
570.4379 138.0
570.4854 148.0
571.2922 329.0
571.3471 879.0
571.4411 123.0
571.9674 124.0
572.3492 352.0
573.1604 345.0
573.3527 130.0
573.4110 145.0
573.9491 177.0
574.1586 113.0
574.3471 321.0
575.0573 1743.0
575.3329 1371.0
575.3993 759.0
579.2586 137.0
593.9298 515.0
594.9224 150.0
595.9315 249.0
597.9227 145.0
607.2525 249.0
607.2976 437.0
608.2507 149.0
608.3061 159.0
613.0068 253.0
620.2879 112.0
627.3087 116.0
631.9094 146.0
635.3508 132.0
644.2898 174.0
650.9518 380.0
651.9424 119.0
652.9477 173.0
655.2627 161.0
662.4124 3322.0
663.4168 1458.0
664.4227 344.0
672.2777 936.0
673.2764 327.0
676.3591 336.0
677.3624 145.0
685.3314 997.0
686.3401 367.0
686.9174 137.0
688.9164 190.0
721.2982 218.0
744.2979 136.0
745.3221 146.0
761.4813 447.0
762.3243 127.0
762.4853 306.0
784.3914 563.0
785.4017 306.0
813.4010 145.0
830.3499 379.0
831.3515 204.0
833.3906 415.0
834.3925 221.0
841.3321 132.0
858.3568 963.0
859.3494 577.0
860.3622 190.0
876.3639 138.0
890.4073 1475.0
891.4084 572.0
892.4081 194.0
897.4778 545.0
898.4888 283.0
996.3872 140.0
1004.4567 798.0
1005.4499 617.0
1006.4473 231.0
1013.4171 155.0
1015.4078 229.0
1034.5336 239.0
END IONS
BEGIN IONS
TITLE=Spectrum 1MVNNGHSFNVEYDDSQDK_1049.csv DRIFT_TIME=11.1817 11.0229 11.3297 11.2934 11.2647 11.3865 11.3724 11.3521 11.4173 11.3855 11.6486 11.4059 11.2952 11.343 11.3961 11.8256 11.3736 11.6368 11.8599 11.8005 11.8836 12.0109 22.3187 19.2814 23.3115 21.2361 20.4918 23.4243 22.8544 21.7491 22.3219 25.401 27.5171 23.8012 25.8257 29.6425 28.7175 29.9925 30.1555 25.9907 27.7269 27.0934 33.1331 32.3403 27.2516 31.151299 31.543999 34.9832 30.6769 30.4646 34.6117 39.2757 39.4412 32.0061 32.2967 32.0231 32.2783 43.2214 41.6222 34.2157 34.2701 34.2514 34.2984 34.1802 33.8853 33.7686 45.0942 44.8896 34.0753 34.0876 33.6191 33.2959 33.2753 42.2402 36.7872 35.6122 35.7917 35.5428 44.8706 35.1254 44.526 35.5374 44.4448 35.573 35.1321 37.147 36.7878 36.9916 37.0117 37.0462 50.1515 37.3277 50.339 37.4117 47.5224 48.7379 47.9372 51.9101 51.8913 39.6511 50.7007 49.928 39.7308 39.0358 39.8504 40.3558 51.1559 38.7548 51.6645 42.9625 42.7873 41.5375 45.9037 46.0292 43.7326 62.0239 67.0987 65.895 67.026 47.0839 46.9311 67.1679 50.8004 76.0136 77.1884 77.2389 78.1302 77.9793 79.3986 79.0965 80.6169 79.9387 78.2735 93.9993 90.5123 98.7999 104.4417 124.3797 131.8066 130.1019 
PEPMASS=1049.9445
CHARGE=2+
56.0470 433.0
57.0317 271.0
70.0611 389.0
72.0777 191.0
84.0757 898.0
104.0642 657.0
110.0649 400.0
122.0732 1660.0
123.0770 146.0
129.0925 368.0
129.9573 154.0
130.0796 430.0
136.0687 451.0
147.1029 195.0
158.0898 510.0
171.9659 297.0
195.0742 151.0
201.9728 719.0
203.1072 615.0
215.9873 297.0
226.1070 217.0
227.0877 188.0
340.1626 129.0
345.1394 236.0
357.2268 338.0
372.1682 323.0
373.1535 577.0
390.1801 369.0
395.1635 272.0
396.1475 150.0
408.9869 163.0
414.1671 114.0
442.1694 137.0
444.9591 193.0
446.1355 133.0
459.1857 210.0
460.1892 122.0
477.2069 1669.0
478.2086 380.0
496.9228 112.0
498.9397 136.0
503.9583 254.0
516.1998 333.0
517.1944 127.0
518.8834 403.0
555.9644 649.0
556.9674 166.0
561.1531 123.0
572.8666 437.0
575.8929 119.0
585.0025 158.0
592.2303 1007.0
593.2260 249.0
593.9078 2123.0
594.9105 406.0
595.9150 509.0
597.9065 291.0
608.2304 280.0
609.2212 136.0
612.9804 3184.0
613.9888 1108.0
614.9794 1532.0
615.9823 586.0
616.9782 898.0
617.9799 188.0
618.9668 140.0
625.2562 616.0
626.2632 338.0
629.8813 564.0
630.8920 113.0
632.8977 155.0
633.8885 326.0
635.8898 127.0
636.2225 158.0
648.9610 247.0
650.9245 3369.0
651.9261 1053.0
652.9269 1300.0
653.2547 823.0
653.9299 483.0
654.2387 235.0
654.9227 771.0
655.2597 124.0
655.9270 243.0
656.9196 179.0
686.9055 1115.0
687.9047 293.0
688.8791 2464.0
689.8879 501.0
690.8881 853.0
691.2773 689.0
691.8903 208.0
692.2768 233.0
692.8851 276.0
695.2649 106.0
707.2498 720.0
708.2498 257.0
712.2932 139.0
722.2673 140.0
722.8776 137.0
723.2669 162.0
724.2090 127.0
724.8615 398.0
725.8656 139.0
726.8484 285.0
728.8752 128.0
740.2820 503.0
740.8856 1629.0
741.2857 240.0
760.8254 381.0
762.8166 394.0
764.8493 111.0
798.7863 123.0
800.7821 111.0
831.7136 108.0
853.2902 142.0
870.3081 698.0
871.3062 336.0
887.3388 183.0
888.7265 446.0
892.7044 266.0
922.3454 208.0
924.7042 124.0
999.3354 546.0
1000.3493 342.0
1001.3609 371.0
1002.3674 210.0
1003.3518 148.0
1032.4142 175.0
1033.4168 192.0
1050.4291 1227.0
1051.4302 666.0
1052.4574 219.0
1098.4078 179.0
1100.4360 213.0
1212.4318 300.0
1229.4707 223.0
1446.5187 267.0
1446.5200 265.0
1447.5325 226.0
END IONS
BEGIN IONS
TITLE=Spectrum 1QSPVDIDTK.csv DRIFT_TIME=16.3109 17.4302 16.1662 16.2331 18.3111 18.0107 18.5116 17.578 17.6177 16.7346 16.3758 16.472 16.3154 16.3802 19.6293 16.3675 16.6832 19.4341 16.5111 17.4179 16.805 19.1957 18.6356 19.6001 19.2269 19.7772 20.3938 20.2672 16.9727 16.93 16.2134 16.6895 19.1746 19.9379 17.0404 19.1594 19.1424 16.1663 18.8846 19.4815 19.2256 16.978 19.0959 16.9047 19.6971 16.6117 17.2521 20.6366 17.6265 22.2857 17.4287 18.8176 17.2453 19.1924 17.383 20.3269 20.0316 19.2953 20.5635 19.9641 21.9953 17.0804 18.9713 18.2432 18.2883 18.6866 19.2425 17.9951 18.4928 17.3199 20.8427 17.3371 17.1495 20.6615 21.8125 18.1817 20.7466 17.7148 20.5603 20.3279 28.7725 18.6489 20.3238 21.6269 17.9722 21.6381 22.2889 20.3028 20.1245 21.8319 18.7967 19.1222 21.2471 21.6706 21.5672 18.5187 19.8859 23.8644 22.8842 23.9223 20.2981 20.0795 21.629 21.3312 21.3767 22.5037 27.83 21.3212 21.2979 21.7158 21.1421 20.5915 22.1718 26.9127 22.0244 22.1365 19.6439 19.6864 22.2776 24.0751 23.325 20.8746 23.0005 22.8301 23.1176 26.4051 26.1683 22.957 22.5079 31.3396 24.3789 26.561 22.4034 24.2643 26.831 25.9922 24.7363 25.6058 25.3607 28.0546 32.449 22.2663 22.7066 22.3107 28.6127 28.8056 29.7715 22.8509 29.0583 30.7498 25.2309 28.6208 28.6617 25.5139 29.0317 28.9271 25.7645 25.5655 25.5432 25.5182 25.6878 25.2971 28.9461 30.9368 28.1692 29.9053 23.6527 34.8969 28.6525 28.3575 30.1198 30.858 26.1948 26.4002 26.1401 26.2068 34.051 26.1138 31.5191 28.2942 31.852402 30.1928 31.1344 31.204498 32.1665 31.576 30.0006 33.2319 29.7343 35.1454 31.2416 27.7697 30.3817 32.7877 28.9171 32.594 28.9794 29.2051 31.1744 31.281403 30.4946 34.2667 35.3327 31.674202 36.3993 33.2026 40.6603 32.2272 27.7645 34.6218 31.070099 33.1986 31.132797 31.2835 31.494102 31.328697 39.3895 30.8382 39.1069 38.5889 31.051598 37.9651 35.1274 37.8778 44.4056 35.8624 46.0845 37.0884 42.9753 44.9268 31.0481 34.3152 36.0017 36.5245 48.7147 36.9267 34.6887 39.9066 43.0726 35.246 36.9662 36.3793 45.4849 35.108 43.0727 34.9574 42.7756 35.0931 45.2503 35.2116 36.5769 47.2262 36.7896 36.9336 48.1326 34.3917 42.4935 36.1545 45.1703 45.4549 45.7551 50.3684 49.6747 42.0367 41.6373 42.2339 51.903 42.8403 48.1753 43.0022 53.0952 42.5832 41.8033 43.099 54.4317 52.2424 53.098 51.604 59.7125 59.4934 43.2003 50.0469 49.9231 44.136 37.8456 48.9901 55.851 54.2294 50.5095 51.1416 39.5653 48.9935 59.2186 58.5274 54.9468 58.3254 58.7852 55.8576 58.3301 58.5956 59.1734 57.6643 58.0201 64.7764 51.0693 71.013 53.2954 51.2133 54.2256 68.3131 60.8589 71.0028 71.7133 71.3659 63.4591 70.068 70.0389 46.2317 63.454605 60.922 59.173 78.877 78.8781 102.825 65.3099 65.4839 67.4679 60.792 74.7242 75.0251 75.354 78.9853 87.0191 87.3736 88.7005 83.3449 83.2425 86.9423 86.728 90.1866 69.157 85.7858 85.2887 92.1352 89.593 94.1244 87.6464 91.4784 92.1744 102.2425 103.9713 102.3812 103.2552 104.5576 103.2651 118.1624 109.9967 105.535 107.7924 115.3126 114.1919 114.4082 126.799 120.163 124.8621 119.4559 119.0755 124.4537 127.8156 131.1184 124.4596 130.0432 118.7473 131.1568 137.2153 131.5182 143.6717 149.1756 156.769 
PEPMASS=501.762
CHARGE=2+
101.0709 770.0
102.9689 251.0
104.0701 799.0
110.0716 636.0
112.0073 143.0
112.9924 215.0
114.9516 9332.0
116.0028 1367.0
116.9878 510.0
120.0799 255.0
122.0805 1688.0
125.0698 564.0
126.0544 5781.0
127.0572 603.0
128.9683 1242.0
129.0662 508.0
129.1021 2458.0
129.9634 1066.0
130.0858 2924.0
130.9997 258.0
131.0905 207.0
131.9586 248.0
132.9627 4702.0
133.9678 1619.0
134.9638 353.0
135.9637 392.0
136.9307 180.0
140.9682 373.0
141.0635 165.0
141.1027 466.0
141.4607 346.0
143.0816 890.0
144.9626 1876.0
146.9798 448.0
147.1121 1681.0
147.9729 457.0
149.9688 135.0
150.4661 191.0
150.9719 708.0
151.9791 793.0
152.0013 456.0
152.0784 304.0
152.9729 159.0
153.0649 670.0
153.9761 270.0
154.0513 382.0
154.1227 170.0
154.9412 185.0
156.1017 172.0
156.9488 177.0
157.0977 420.0
158.0119 281.0
158.0940 148.0
158.9801 756.0
159.0807 203.0
160.0284 534.0
161.9908 470.0
162.9744 1086.0
164.0008 340.0
165.9837 214.0
166.8687 1058.0
167.0837 370.0
167.9962 153.0
168.0796 123.0
169.0960 476.0
169.1327 2265.0
170.0115 200.0
170.0918 4962.0
170.1378 213.0
171.0760 3442.0
171.9737 1175.0
172.0785 364.0
173.0580 155.0
173.9738 300.0
174.9571 628.0
175.1199 181.0
175.9648 227.0
176.0210 565.0
176.9897 185.0
178.0414 283.0
179.0012 158.0
181.0592 206.0
182.0129 312.0
184.8786 177.0
185.0936 155.0
185.1620 137.0
185.9894 742.0
186.0877 121.0
187.1099 200.0
187.9719 434.0
188.1023 1572.0
189.1005 235.0
189.9860 700.0
192.9642 21451.0
193.9722 557.0
195.0780 336.0
195.8942 1083.0
196.0058 165.0
197.1311 242.0
197.9894 794.0
198.0864 1029.0
199.0743 323.0
201.1232 1224.0
201.9861 1246.0
204.0000 4196.0
204.1322 189.0
204.9828 131.0
205.0036 540.0
205.9969 2252.0
206.9974 251.0
207.9932 1770.0
209.0914 233.0
209.9541 222.0
210.0807 486.0
210.9752 15533.0
211.9802 335.0
213.0867 339.0
213.9053 591.0
215.0995 143.0
216.0014 657.0
216.0974 307.0
217.0839 209.0
218.9538 194.0
219.9833 389.0
221.9757 405.0
222.9865 200.0
223.8884 1319.0
223.9730 198.0
225.9066 835.0
226.0738 158.0
226.0760 223.0
228.0900 404.0
228.9868 761.0
229.1162 358.0
230.1498 916.0
231.1425 219.0
231.9776 1631.0
232.9751 156.0
233.9723 235.0
240.1310 148.0
240.1707 138.0
241.8981 4639.0
242.9035 256.0
243.9137 930.0
243.9824 191.0
244.0844 193.0
244.1639 258.0
244.9128 109.0
245.8983 214.0
246.0575 264.0
247.9727 155.0
248.1587 7089.0
249.1625 1088.0
249.9864 8147.0
250.1176 376.0
250.1663 167.0
250.9916 1446.0
251.9827 12419.0
252.9878 2267.0
253.9801 6962.0
254.9849 742.0
255.9777 720.0
256.0860 182.0
257.1597 443.0
258.0151 322.0
258.1444 808.0
259.8645 3770.0
260.1985 155.0
261.9938 545.0
262.9857 394.0
263.9045 199.0
264.0640 128.0
267.9992 1208.0
269.0009 136.0
269.9950 1976.0
271.0007 307.0
271.9259 139.0
271.9898 967.0
272.1233 582.0
273.9897 420.0
275.1695 590.0
275.9100 202.0
276.7671 396.0
278.7637 197.0
279.9565 586.0
281.1023 473.0
281.9577 829.0
283.1415 306.0
283.9569 223.0
284.1658 110.0
284.9022 141.0
287.9405 544.0
288.9987 1659.0
289.9264 222.0
291.0441 1909.0
291.9999 392.0
292.0465 250.0
293.0314 239.0
293.9218 251.0
294.7798 448.0
294.9262 131.0
295.1376 211.0
296.1235 338.0
296.7740 240.0
297.1444 113.0
297.9641 317.0
299.2020 131.0
299.9645 225.0
300.8566 174.0
301.1130 110.0
307.0073 6511.0
307.9332 128.0
308.0124 1156.0
309.0056 1410.0
310.0158 171.0
311.0049 374.0
312.1547 4831.0
312.7908 325.0
313.1587 916.0
314.1570 154.0
314.7844 258.0
315.1662 171.0
318.9382 137.0
319.1597 205.0
319.1969 124.0
319.9940 748.0
321.2090 242.0
323.9041 170.0
327.1633 112.0
328.1819 118.0
330.7986 126.0
331.0091 377.0
333.9400 1009.0
334.9429 179.0
335.1166 210.0
335.9370 115.0
336.8758 429.0
336.9120 118.0
338.1084 170.0
338.9824 928.0
341.9258 348.0
343.9163 206.0
344.1437 432.0
344.9562 4339.0
345.1737 568.0
345.9584 536.0
346.1588 134.0
346.9539 499.0
347.2268 247.0
348.9540 160.0
349.0218 150.0
349.1874 132.0
351.9511 665.0
352.9537 157.0
353.1356 104.0
354.8876 315.0
358.1340 165.0
362.9672 426.0
363.1855 3327.0
364.1941 590.0
365.1988 140.0
366.2207 125.0
367.2029 186.0
373.0605 920.0
374.0607 242.0
375.0543 415.0
379.1895 168.0
380.9329 1316.0
381.1717 134.0
381.9293 183.0
382.2411 162.0
382.9302 484.0
383.0070 397.0
384.9284 132.0
388.2552 773.0
394.2055 549.0
395.1942 173.0
396.2155 117.0
397.2414 828.0
398.2523 254.0
398.9477 838.0
399.1875 579.0
400.1892 157.0
400.9421 426.0
401.8995 120.0
409.0109 148.0
410.2404 437.0
411.2333 107.0
412.1773 106.0
413.1972 108.0
415.8451 285.0
425.0069 226.0
425.2413 597.0
426.2345 121.0
427.1852 418.0
428.2511 151.0
435.1523 153.0
440.1747 127.0
443.2141 418.0
444.2200 122.0
445.2040 298.0
453.1695 215.0
457.1972 161.0
458.2607 247.0
459.0086 321.0
459.2934 277.0
463.0176 184.0
465.0105 270.0
466.0283 301.0
468.2479 271.0
470.1923 135.0
476.2722 1751.0
477.2726 545.0
478.2735 134.0
483.1735 242.0
484.2763 105.0
490.2660 149.0
490.8835 184.0
491.2188 169.0
492.2131 203.0
498.9599 210.0
503.3522 499.0
504.3657 170.0
506.4723 436.0
509.2299 1941.0
510.2338 601.0
526.2262 264.0
536.9198 379.0
540.2651 2748.0
541.2674 796.0
542.2713 221.0
544.2628 129.0
556.3438 2174.0
567.2847 527.0
568.2746 145.0
573.2832 310.0
574.2895 157.0
591.2970 3710.0
592.2970 1172.0
593.3009 365.0
593.9337 321.0
594.3160 125.0
622.3068 204.0
622.3118 281.0
623.3032 174.0
623.3112 164.0
627.3018 207.0
639.3166 275.0
641.3151 221.0
670.3866 478.0
671.2565 191.0
684.3195 201.0
690.3660 1763.0
691.3719 682.0
716.2809 135.0
722.2942 274.0
734.3016 223.0
737.3473 900.0
738.3461 357.0
741.4354 333.0
752.3184 193.0
764.3168 229.0
769.4142 223.0
770.3162 111.0
770.3970 147.0
781.3401 386.0
782.3262 242.0
787.4121 1999.0
787.4153 1951.0
788.4182 823.0
788.4194 1071.0
789.4225 370.0
799.3462 427.0
807.3988 180.0
856.4479 340.0
856.4482 283.0
874.4537 285.0
913.4725 902.0
913.4746 691.0
END IONS
BEGIN IONS
TITLE=Spectrum 1SHHWGYGK_01.csv DRIFT_TIME=23.6446 
PEPMASS=486.23
CHARGE=2+
53.0075 579.0
53.0318 320.0
54.0034 258.0
54.0275 703.0
55.0113 1661.0
55.0480 4196.0
56.0426 498.0
56.9580 116.0
59.0419 4253.0
67.0459 1365.0
67.9600 286.0
68.0051 171.0
68.0408 465.0
69.0254 228.0
69.0605 15321.0
70.0633 893.0
72.0712 456.0
74.0861 163.0
77.0291 495.0
79.0431 1842.0
80.0404 2784.0
81.0586 842.0
82.0535 1033.0
83.0367 313.0
84.0326 1356.0
84.0682 473.0
86.0469 132.0
86.0843 675.0
89.0472 535.0
91.0409 1004.0
93.0565 1020.0
94.0514 711.0
95.0361 332.0
95.0720 960.0
96.0674 1656.0
97.0514 1134.0
98.0852 154.0
398.1241 984.0
95.0720 960.0
70.0633 893.0
234.1010 887.0
268.1273 865.0
81.0586 842.0
94.0514 711.0
54.0275 703.0
86.0843 675.0
410.1252 599.0
53.0075 579.0
342.1000 563.0
89.0472 535.0
56.0426 498.0
77.0291 495.0
84.0682 473.0
68.0408 465.0
490.2677 465.0
72.0712 456.0
342.0954 404.0
357.0754 367.0
357.0832 337.0
95.0361 332.0
53.0318 320.0
83.0367 313.0
375.5509 306.0
323.0874 300.0
67.9600 286.0
399.1294 283.0
252.1058 277.0
270.1438 266.0
375.3749 261.0
54.0034 258.0
490.2663 248.0
241.1420 240.0
69.0254 228.0
375.6302 213.0
259.1485 207.0
184.9866 201.0
368.0837 198.0
269.1365 187.0
376.5143 178.0
68.0051 171.0
373.1228 170.0
252.1293 168.0
74.0861 163.0
297.0535 161.0
98.0852 154.0
411.1330 152.0
397.0964 150.0
376.3326 147.0
284.1224 144.0
375.9066 144.0
375.4954 143.0
374.8702 137.0
377.8657 137.0
331.0639 135.0
377.2917 135.0
86.0469 132.0
376.2725 131.0
130.9830 130.0
373.0716 119.0
376.9125 119.0
56.9580 116.0
376.9136 116.0
377.7142 110.0
376.3518 109.0
375.9381 108.0
END IONS
BEGIN IONS
TITLE=Spectrum 1VGDANPALQK.csv DRIFT_TIME=16.2986 16.2867 16.1969 16.221 16.2803 16.2266 16.479 18.083 16.221 16.2856 18.5381 16.4646 18.5629 17.9249 16.4688 18.5619 18.2201 18.405 16.2325 16.5298 16.6527 16.3645 16.3223 16.381 16.4124 16.4313 16.5157 19.5234 16.6696 19.2908 16.6162 19.2565 16.3084 16.637 17.1668 16.4673 18.5374 18.9343 18.659 19.2645 16.9434 20.7842 16.9061 16.4999 16.6785 16.9171 16.5821 19.5313 16.9119 18.6965 20.2154 17.028 19.3177 16.9681 18.4368 17.0777 20.3211 16.8214 19.8753 17.5466 17.2405 19.333 17.7354 20.5123 17.6479 20.2422 19.4796 17.2441 21.0048 22.0163 19.1314 17.5347 18.489 17.1963 18.2018 17.8747 20.9355 17.9324 20.5482 17.0726 21.489 19.1494 18.0512 18.3763 18.5727 18.4169 20.2837 20.0714 21.9398 20.2279 22.0534 19.9199 19.1543 18.3821 19.1408 20.9872 20.3697 20.5019 21.6813 21.1917 21.7605 21.6276 18.6791 21.1693 18.9852 21.5256 19.1304 24.1784 20.1775 23.375 21.6531 20.1618 21.4228 22.7532 22.6275 21.9849 21.3043 20.6672 26.0803 20.9016 22.0763 25.6996 22.0721 21.2097 22.1249 21.9196 25.331 22.1032 23.2282 23.539 23.4486 24.0864 23.0685 22.8728 27.9797 22.1795 28.1939 22.8404 26.7431 23.8183 23.947 22.6427 28.598 27.6233 22.6314 24.0606 24.3947 25.9649 26.1811 24.1859 24.6355 28.6341 25.8753 29.7593 27.8757 27.8418 30.1731 25.6181 27.5011 29.3956 29.1725 28.4741 29.2788 27.8686 25.8041 25.5373 25.4657 25.6644 25.5688 27.9096 25.0708 27.2492 39.2064 26.0763 28.7159 30.3439 28.9894 25.2087 28.6244 34.4549 29.8216 29.6049 31.013802 34.0873 28.2921 27.9922 30.0116 27.2274 29.9894 27.0956 30.1319 29.1615 29.3694 26.3896 29.6512 29.1018 33.5226 30.4015 26.0468 31.9566 30.9447 31.6408 31.8316 33.778 31.5727 30.056 31.324402 30.1796 30.5142 32.0026 32.0561 30.3495 41.3313 27.6939 33.1179 41.6055 33.5957 31.9301 34.9885 29.2991 27.7201 30.3154 31.9096 30.7503 33.6124 30.4632 31.9346 30.6849 30.5415 32.7857 30.7273 35.4874 35.4332 31.8469 36.6766 32.2448 39.2317 41.8736 33.9416 34.7044 34.9947 28.9413 34.7116 34.131 42.8434 35.1181 36.4193 29.3949 31.135002 32.1818 31.0009 31.3623 32.6752 33.5942 30.9164 30.8814 39.9195 31.075699 36.1214 31.1507 38.9319 36.039 37.3482 37.4875 34.6909 35.0379 35.0592 46.1057 49.7819 37.1093 37.8571 48.3903 37.9983 33.045 39.3564 43.5477 37.9867 45.1424 31.756798 37.4056 37.8833 39.2745 39.5343 39.3563 42.859 43.8081 39.9142 35.0044 45.964 40.6548 35.2884 39.8358 50.2686 37.0836 41.8106 49.7034 42.7469 34.6463 44.1569 35.1269 35.207 35.1606 45.7033 35.2975 35.5677 36.4299 37.9804 50.1086 44.6771 40.0013 44.128 40.6982 41.7666 40.6566 44.4854 45.6586 46.9047 36.1853 45.1531 36.1826 50.5451 44.7905 36.0364 47.8318 46.8916 45.1123 47.6367 50.3089 50.1139 49.8936 50.5977 36.7947 43.2922 51.2768 43.1447 49.2601 43.0626 49.9497 53.7601 43.4869 52.6435 43.1704 43.0431 42.0706 48.6813 54.0265 60.501 54.0886 54.913 52.0309 56.4167 53.7242 49.0635 48.4015 53.6623 52.8199 47.92 43.2287 56.2062 43.3631 43.3037 42.4617 50.0061 50.2342 49.1454 58.8197 57.2928 56.1383 51.8946 52.3394 60.1637 46.8497 46.7647 61.0544 51.8323 59.5417 53.4087 63.1008 63.563797 54.3628 50.351 60.2161 42.4335 55.9439 42.8527 42.7359 59.1029 58.6397 52.4868 54.6393 55.1654 55.4055 64.455 53.6943 57.6762 43.0057 58.615 62.0667 58.2316 57.413 62.7398 55.2813 58.7054 59.6233 59.4431 69.9793 70.7704 52.5482 60.6708 52.447 52.3149 61.2258 64.2128 65.3988 66.1954 61.984 62.1654 64.2626 45.4505 56.9856 61.4681 62.2775 62.7463 63.6024 63.257797 63.6063 62.7854 64.7858 70.3338 70.8174 60.8707 71.4088 64.2305 67.3673 68.7084 101.3594 71.6625 77.3538 100.6417 79.3497 50.4504 65.3679 50.4218 65.3181 69.1609 50.1114 67.1826 75.5154 77.4458 76.8194 74.7241 72.2144 73.245 78.5924 71.424 67.6819 66.8712 68.9138 71.3208 74.0145 73.9015 82.2091 82.1346 83.6413 72.766 75.9993 53.431 76.3405 76.1114 74.842 75.1258 87.4458 79.0387 88.2068 87.5029 88.1399 78.2018 81.3489 87.1578 87.4283 81.1443 81.8083 80.0809 79.7834 76.6469 81.1567 97.263 68.0224 84.1182 92.3173 85.9765 83.4005 83.9663 86.4972 82.7713 90.9918 90.9015 88.7556 87.9104 87.9302 89.1856 88.2968 88.775 84.8261 90.7457 91.0002 90.2 93.8077 92.8446 94.1092 92.828 98.9547 99.945 93.8908 102.2717 96.2783 103.4268 100.9891 102.9628 101.7432 101.8418 100.3517 101.5191 102.434 102.9461 98.076 102.5607 102.2309 114.0567 109.2883 109.3313 108.2933 109.8643 113.7512 114.6036 114.4684 112.8823 122.1143 119.5144 125.811 117.0686 110.7349 115.6613 116.3564 111.3191 110.212 109.8335 114.3389 121.1378 113.7076 117.6604 110.0323 118.7225 114.6467 115.6978 120.4143 119.6838 129.9886 124.6643 110.1647 121.3597 124.8847 117.3477 119.5523 131.742 130.4699 135.1651 136.0279 137.9276 145.2647 135.9228 143.1108 145.7995 142.1787 139.0762 148.0584 150.794 149.7934 
PEPMASS=506.7775
CHARGE=2+
101.0717 493.0
101.1074 352.0
102.0548 188.0
104.0705 1318.0
110.0695 12226.0
111.0739 1083.0
112.0829 231.0
112.9920 171.0
113.0712 207.0
114.0550 346.0
114.9522 5680.0
115.0866 188.0
115.9560 429.0
116.0021 195.0
116.0701 193.0
116.9490 805.0
116.9867 964.0
118.9464 345.0
119.0503 529.0
120.0804 3616.0
121.0847 384.0
122.0806 3357.0
123.0826 197.0
124.0379 193.0
124.0769 391.0
127.0499 586.0
127.0872 161.0
128.9674 649.0
129.1015 5014.0
129.9627 731.0
130.0856 4459.0
130.9638 159.0
131.0704 331.0
131.0898 432.0
131.1164 355.0
132.0813 236.0
132.9633 2418.0
133.9666 179.0
134.9584 375.0
135.9644 242.0
136.0754 3383.0
136.9315 730.0
137.0790 348.0
139.0890 170.0
141.0661 472.0
141.1016 1702.0
144.0810 376.0
144.9633 1039.0
145.0619 486.0
145.9614 153.0
146.9741 207.0
147.1116 2121.0
147.9725 258.0
148.1157 207.0
150.9743 287.0
154.1229 256.0
154.9419 798.0
156.0794 244.0
157.0068 255.0
157.0955 1244.0
158.0927 717.0
158.9785 427.0
159.0892 1560.0
160.0267 359.0
160.0913 226.0
161.9870 231.0
162.9747 523.0
163.0972 329.0
164.0023 166.0
166.8687 246.0
167.9957 203.0
169.0563 259.0
169.0958 2808.0
170.0589 258.0
170.1001 404.0
171.0823 243.0
171.9743 988.0
172.0749 485.0
172.9502 281.0
173.0550 734.0
174.9543 258.0
175.0845 1079.0
175.1183 1885.0
176.0844 170.0
179.0926 586.0
181.0956 709.0
182.0116 151.0
183.1492 1873.0
183.9749 152.0
184.1498 214.0
185.1648 169.0
186.0840 416.0
186.1247 920.0
187.0698 563.0
187.1074 469.0
189.9847 555.0
190.0854 855.0
191.0874 219.0
192.9652 11408.0
193.0973 208.0
193.9692 2421.0
194.9620 4194.0
195.0760 1621.0
195.9648 323.0
196.0752 224.0
196.9590 1051.0
197.0982 217.0
197.9903 580.0
198.0856 337.0
200.1387 415.0
201.9848 1249.0
202.1074 223.0
203.9992 1521.0
204.1330 3894.0
205.1367 446.0
205.9636 186.0
207.0854 288.0
209.0905 1170.0
210.0780 168.0
210.0925 133.0
210.9758 8165.0
211.1435 237.0
211.9794 1587.0
212.1028 452.0
212.9727 3003.0
213.9744 235.0
214.1563 168.0
214.9701 732.0
215.9992 678.0
216.1001 240.0
217.0947 442.0
218.0826 339.0
218.9577 377.0
219.9891 266.0
220.9024 320.0
221.0946 730.0
221.8978 316.0
223.1140 133.0
223.8879 215.0
224.1061 211.0
225.0973 313.0
225.9043 290.0
226.0745 253.0
228.0907 164.0
228.9870 393.0
231.9742 330.0
234.0994 191.0
235.1055 4904.0
236.1085 884.0
236.9670 118.0
238.0818 162.0
238.9176 157.0
239.1120 917.0
239.1496 407.0
240.1328 670.0
241.1333 142.0
242.1499 154.0
244.0918 540.0
245.0915 247.0
245.8965 2052.0
246.8958 124.0
247.1270 445.0
247.8929 572.0
248.1299 142.0
249.0971 1500.0
249.9863 5188.0
250.0999 185.0
250.9895 651.0
251.9841 851.0
252.1227 189.0
253.9821 277.0
254.1133 225.0
254.1875 157.0
255.0083 238.0
256.0866 345.0
257.1595 2609.0
257.9353 369.0
257.9797 578.0
258.0121 242.0
258.0902 156.0
258.1443 3907.0
259.1475 593.0
259.9127 268.0
260.1975 187.0
261.9924 289.0
262.9815 380.0
263.9077 3162.0
264.0037 496.0
264.9119 179.0
265.1343 185.0
265.9046 942.0
266.1155 661.0
267.1066 2245.0
267.9984 610.0
268.1133 395.0
269.1247 249.0
269.9285 148.0
269.9731 163.0
269.9955 142.0
270.1034 128.0
271.9583 250.0
272.1223 3336.0
273.1256 660.0
275.1186 497.0
275.1710 3003.0
275.9072 3130.0
276.1752 436.0
276.9151 519.0
277.9109 1181.0
279.9541 235.0
281.1002 233.0
281.9173 1743.0
282.1792 896.0
282.9219 169.0
283.1396 1508.0
283.1828 144.0
284.1397 447.0
284.8990 127.0
285.9197 233.0
286.7974 353.0
287.9439 508.0
288.9978 2587.0
289.9220 1789.0
289.9962 455.0
290.1433 115.0
290.9954 405.0
291.9188 487.0
293.9179 3103.0
294.9289 529.0
295.1053 396.0
295.9168 958.0
296.1485 1338.0
297.1530 499.0
297.9711 164.0
298.1364 286.0
298.9714 308.0
299.2078 745.0
300.1515 175.0
300.9282 4971.0
301.1141 753.0
301.9299 245.0
301.9623 161.0
302.1209 110.0
302.9262 476.0
303.1474 174.0
303.9299 162.0
304.1654 115.0
304.8085 623.0
307.0052 13957.0
307.9335 1443.0
308.0120 1808.0
309.0070 1431.0
309.9317 458.0
310.8864 130.0
311.0058 202.0
311.9346 511.0
312.1521 338.0
312.8450 178.0
313.1134 475.0
313.9243 175.0
314.1372 122.0
314.9514 121.0
315.1649 1020.0
316.1722 178.0
318.9406 3697.0
319.9415 292.0
320.9405 334.0
321.2093 244.0
323.2246 1749.0
323.9142 332.0
324.1427 1581.0
324.2255 304.0
325.1519 320.0
325.9493 260.0
326.1410 249.0
326.1949 192.0
327.1287 242.0
328.1912 224.0
330.8456 156.0
332.9557 134.0
334.9464 297.0
336.9055 2211.0
337.1474 217.0
337.9061 178.0
338.1113 229.0
338.1769 374.0
338.9069 709.0
338.9769 136.0
339.2049 130.0
340.1273 345.0
340.9820 171.0
341.1385 379.0
341.2375 1026.0
341.9221 653.0
342.1545 155.0
342.2404 187.0
343.1579 507.0
343.9075 231.0
344.1536 328.0
344.9527 29538.0
345.9598 3878.0
346.9516 3821.0
347.2276 340.0
347.9547 156.0
348.9489 292.0
349.0242 148.0
352.9560 159.0
353.2188 373.0
354.1762 256.0
354.9170 450.0
355.1315 151.0
356.9180 113.0
358.1345 947.0
359.1289 145.0
360.1674 185.0
361.1809 935.0
362.1653 211.0
362.9649 4876.0
363.1539 359.0
363.9686 524.0
364.1152 116.0
364.1609 142.0
364.9626 519.0
367.1967 1704.0
368.1973 468.0
369.1466 395.0
370.1698 176.0
371.2346 179.0
376.1710 1779.0
377.1774 378.0
379.1935 367.0
379.8770 182.0
379.9842 815.0
380.1938 194.0
380.9310 6453.0
381.1637 657.0
381.9351 785.0
382.1679 219.0
382.2409 517.0
382.9278 2519.0
383.2413 148.0
384.1519 278.0
384.9228 137.0
385.0143 125.0
386.1604 402.0
388.2532 4011.0
389.1807 186.0
389.2582 1007.0
390.2605 127.0
391.1729 166.0
392.2245 124.0
393.1361 132.0
394.1660 289.0
395.1587 180.0
396.2238 581.0
397.2177 236.0
398.1675 315.0
398.9410 4773.0
399.2284 109.0
399.9475 511.0
400.9423 1864.0
402.9353 145.0
404.1648 3453.0
405.1690 777.0
406.1753 125.0
409.1635 201.0
410.2372 1996.0
411.2384 629.0
412.1845 792.0
413.1848 200.0
413.2544 117.0
416.9089 514.0
418.9064 355.0
421.2222 618.0
422.1643 131.0
422.2275 167.0
423.1636 139.0
424.2161 2839.0
425.2202 645.0
426.2022 239.0
426.9743 108.0
428.2452 611.0
428.8406 3747.0
429.2061 298.0
429.8508 255.0
430.8394 343.0
435.1522 252.0
436.1883 133.0
438.1613 454.0
439.1750 180.0
440.1773 913.0
441.1806 419.0
442.2663 202.0
442.9232 353.0
443.1849 150.0
448.8445 127.0
450.1648 230.0
450.2316 257.0
452.1780 196.0
453.1689 411.0
454.2277 229.0
455.1846 443.0
457.2007 925.0
458.2022 659.0
459.1968 123.0
459.2925 1331.0
460.2954 407.0
461.0206 578.0
461.1987 273.0
462.0239 117.0
463.0121 123.0
464.1840 137.0
465.1786 118.0
467.2571 317.0
468.2479 187.0
469.1994 682.0
470.1967 357.0
471.2180 157.0
473.8677 360.0
475.0363 186.0
475.0558 275.0
475.2231 1531.0
476.2170 496.0
477.2189 119.0
481.2012 227.0
482.1951 166.0
483.1825 265.0
486.1931 121.0
490.2566 305.0
491.2638 125.0
494.1947 138.0
496.2590 185.0
498.2336 187.0
500.1918 176.0
503.2767 101.0
506.4746 785.0
507.2533 172.0
507.3277 622.0
507.4747 333.0
508.3356 231.0
508.8456 1369.0
509.1993 1032.0
509.8481 166.0
510.1956 287.0
510.2341 238.0
510.8408 542.0
511.2343 195.0
511.3422 181.0
516.2394 373.0
517.2261 131.0
518.2170 483.0
519.2066 136.0
524.2784 221.0
524.2867 246.0
525.2700 244.0
526.2255 1538.0
527.2280 559.0
529.2317 312.0
535.1835 201.0
537.2368 165.0
538.2312 112.0
538.3373 288.0
539.3214 717.0
540.3157 219.0
544.2254 452.0
546.2573 7209.0
546.7950 128.0
547.2599 2597.0
548.2547 440.0
553.1932 188.0
554.2645 227.0
556.3379 9572.0
557.2232 143.0
557.3453 3784.0
558.3507 819.0
559.3531 162.0
562.2505 314.0
565.2585 243.0
567.2838 756.0
568.2731 353.0
582.2849 446.0
583.2877 221.0
590.2431 898.0
591.2503 402.0
592.2140 127.0
592.2654 164.0
593.2997 380.0
593.9411 141.0
594.2889 192.0
594.3017 257.0
595.2979 137.0
597.2742 118.0
601.2520 264.0
606.2209 126.0
608.2619 234.0
610.2954 2124.0
611.3037 1013.0
612.3028 291.0
619.2666 255.0
620.2702 135.0
621.3042 154.0
622.2773 662.0
623.2816 249.0
625.2954 336.0
629.2528 218.0
639.3090 1416.0
640.3077 526.0
641.3151 138.0
642.3211 212.0
647.2653 1609.0
648.2671 584.0
648.2689 505.0
653.3565 426.0
654.3086 221.0
654.3184 172.0
656.3284 142.0
659.3444 2608.0
660.3419 1057.0
661.3422 300.0
665.2775 262.0
670.3844 2405.0
671.2502 297.0
671.3879 968.0
672.2573 134.0
672.3852 311.0
681.3033 156.0
681.3599 181.0
684.3195 302.0
722.2986 518.0
734.3042 398.0
735.2909 144.0
738.3434 199.0
739.3586 309.0
740.3399 139.0
741.4191 1703.0
742.4275 743.0
743.4164 290.0
747.3513 1434.0
748.3526 648.0
748.3530 571.0
749.3454 209.0
750.3354 220.0
751.3268 330.0
752.3257 259.0
756.3925 3500.0
757.3959 1526.0
758.3971 453.0
764.3117 281.0
764.3130 303.0
765.3195 172.0
767.3562 394.0
767.3647 332.0
768.3802 195.0
769.3436 162.0
770.3281 193.0
781.3415 485.0
782.3338 663.0
782.3406 353.0
783.3294 289.0
784.3287 178.0
784.3308 215.0
799.3426 414.0
799.3478 658.0
800.3412 279.0
802.4233 143.0
810.3239 268.0
856.4495 1474.0
857.4540 731.0
883.3937 367.0
883.4183 314.0
884.4055 283.0
884.4189 263.0
895.4396 305.0
896.4469 529.0
912.4245 259.0
913.4607 4245.0
914.4687 2470.0
915.4748 802.0
END IONS
BEGIN IONS
TITLE=Spectrum 1VLDALDSIK.csv DRIFT_TIME=17.6202 16.187 16.2544 17.9023 16.3019 16.4954 16.4337 17.4934 16.2947 18.237 16.3914 16.7747 16.4157 16.224 16.5184 16.8143 16.7596 16.6513 19.3668 17.983 16.5274 17.8549 16.7331 19.139 18.999 19.2102 17.0406 19.143 16.8655 16.7979 18.5998 16.8851 17.0041 19.6691 19.638 19.2428 19.2194 19.1757 17.9072 18.4124 16.7241 17.8568 17.8141 19.4521 17.2431 18.8255 17.0094 17.0905 20.3949 20.8585 21.9648 19.3311 19.6383 21.7506 19.1769 19.2935 21.0052 17.6935 19.0948 18.2754 18.164 20.5889 20.6222 17.9428 20.2403 21.33 21.6128 21.7623 18.7024 19.6478 22.3774 22.3558 21.8962 18.2583 22.3194 21.177 16.347 20.0253 23.5972 20.1394 20.0788 24.1065 19.955 20.0285 22.6255 21.9303 22.3927 21.4643 19.4138 21.3107 24.9746 21.3729 21.2094 22.1623 23.4698 19.9315 19.6225 24.8065 19.8521 20.0028 19.7323 23.719 19.4515 22.9887 24.9498 26.1173 22.5036 24.8472 23.5649 25.9682 30.3146 25.3732 25.6799 26.3322 26.0179 26.2071 26.1756 19.7632 24.6478 24.9647 29.2937 25.5408 27.3897 22.1976 21.8879 31.1824 22.0223 22.0732 29.0627 22.78 21.8782 25.5339 30.2993 25.3643 29.831 26.2995 25.7824 32.1303 31.024399 27.5978 27.8972 23.832 23.6808 21.1264 34.0002 23.7573 21.731 34.3267 23.732 23.7087 23.4162 21.4802 27.3389 28.3054 31.980698 26.5129 33.7653 30.5426 27.509 33.691 31.586998 35.4181 24.0313 23.5949 23.5624 23.6303 28.1196 23.9301 23.4521 27.7158 33.2622 23.9894 29.1155 37.5859 31.459198 28.9571 32.3479 27.4554 37.2899 30.43 30.4633 33.5069 31.9823 44.8337 23.9591 35.282 29.3255 38.2039 40.0018 32.6799 39.7386 38.9718 24.8198 41.2924 29.0779 25.7659 27.4871 29.8418 31.2928 30.9751 28.995 31.351501 40.4767 39.8164 39.9612 37.6967 42.5664 41.8526 29.0491 37.0703 27.3991 40.022 29.096 36.0134 37.4002 28.7443 44.7126 43.5226 35.8524 42.5175 29.1552 36.9565 43.9968 38.8367 28.6473 35.4972 44.4556 35.4868 29.8237 34.319 45.0915 45.3046 44.7092 36.903 47.99 32.7033 48.6152 40.2903 37.6884 33.9052 50.2607 36.2048 45.3526 54.1472 45.0655 54.0449 48.9657 39.8372 49.693 43.8746 52.3876 32.9071 52.7943 36.9567 43.7661 43.8828 42.7915 57.1675 56.3315 33.2412 51.146 51.3061 47.0483 49.8443 56.7363 52.0936 37.5918 51.8758 44.9281 55.3055 59.1554 44.1576 50.059 57.3274 49.2066 53.2321 58.4456 53.0318 55.8686 42.0834 55.7915 55.4619 40.4527 59.2171 58.053 58.5054 58.1282 58.2113 59.3296 57.4013 39.485 38.5358 61.599 62.9059 59.8379 54.1764 59.378 52.8107 61.3727 62.3098 59.7975 64.2593 47.8287 69.1425 65.7119 61.7536 60.3303 60.5749 62.0682 61.8996 63.222 62.122 61.3442 67.4601 69.7825 46.6382 66.0384 66.9242 66.6853 68.9178 70.3947 68.4572 65.8107 65.8355 65.2035 76.4378 77.8703 80.9496 64.706 70.3651 80.464 46.1521 69.925 71.9225 71.9373 71.6063 71.9176 68.1883 68.0391 68.1742 73.1061 77.7077 76.0238 80.6051 84.6815 80.7145 82.2474 82.8992 82.3576 82.885 89.6793 85.4917 82.3769 84.6375 87.3095 87.0658 87.5213 85.3905 82.0347 88.1093 87.5443 68.7503 88.1715 88.2978 88.7224 90.7721 92.2129 91.7982 98.3903 103.1562 103.9641 101.3879 104.9435 108.0848 109.8017 114.797 113.4056 114.3228 119.1495 122.9103 122.8143 121.0807 124.7653 129.1185 121.5879 137.0764 152.3795 153.0227 149.1791 146.24 
PEPMASS=487.2845
CHARGE=2+
102.9713 213.0
104.0710 470.0
110.0710 424.0
112.0080 728.0
112.1111 209.0
113.0710 184.0
114.0567 461.0
114.9947 1194.0
116.0344 529.0
116.9881 579.0
119.0489 151.0
120.0814 170.0
122.0811 1023.0
124.0381 243.0
127.0499 601.0
127.0873 314.0
128.1088 215.0
129.1026 1450.0
129.9645 669.0
130.0201 294.0
130.0873 3013.0
131.0052 268.0
131.0879 288.0
132.9612 3896.0
133.9626 345.0
134.9579 3957.0
136.0765 1206.0
136.9545 314.0
138.0918 276.0
141.0659 346.0
142.0183 220.0
145.0605 350.0
147.1133 1799.0
147.9737 236.0
149.9657 145.0
150.9716 1630.0
152.0034 313.0
152.9688 1735.0
154.1219 269.0
154.9676 142.0
155.0811 349.0
155.1191 392.0
156.1039 304.0
157.0061 198.0
157.0590 169.0
157.1338 790.0
158.0948 425.0
159.0771 2607.0
160.0290 2389.0
161.9944 201.0
166.8697 10816.0
167.9975 152.0
170.0143 188.0
170.8614 353.0
170.9783 144.0
171.1474 176.0
171.9752 597.0
173.0536 236.0
173.1306 644.0
175.0725 340.0
175.1193 1313.0
178.0394 1206.0
182.0165 138.0
183.0778 198.0
183.1140 544.0
183.1512 896.0
184.1550 127.0
184.8807 1695.0
185.0575 546.0
185.1283 750.0
185.1653 1632.0
185.9894 343.0
186.1705 228.0
187.0730 1634.0
187.9836 146.0
189.9859 287.0
190.9689 289.0
195.8945 16701.0
196.0043 131.0
196.8988 572.0
197.8928 274.0
197.9910 286.0
199.8872 693.0
201.0872 261.0
201.1238 917.0
201.9849 476.0
202.1273 125.0
202.8888 230.0
203.0676 755.0
204.0016 1026.0
204.8887 225.0
205.0008 210.0
205.9979 200.0
206.0355 168.0
206.0970 138.0
207.0753 140.0
211.0737 143.0
213.1632 508.0
213.9046 9506.0
214.9058 322.0
215.9068 159.0
215.9997 343.0
217.9005 271.0
219.9893 180.0
222.8999 139.0
223.8877 15731.0
224.1056 977.0
224.8946 1103.0
225.1083 177.0
225.8892 408.0
226.0782 140.0
227.1381 600.0
227.8813 750.0
228.0948 138.0
228.1378 156.0
229.1182 2888.0
230.1221 400.0
231.9172 1809.0
231.9787 717.0
232.9776 266.0
233.9507 647.0
233.9726 271.0
237.1266 308.0
241.8989 34728.0
242.0478 428.0
242.1881 220.0
242.9049 4078.0
243.9010 1362.0
244.1671 291.0
244.9000 265.0
245.8937 2277.0
249.9889 2806.0
250.1499 113.0
250.9937 642.0
251.9640 1912.0
252.0974 178.0
253.9803 313.0
254.1513 207.0
255.1364 255.0
256.0930 301.0
258.8034 153.0
258.9161 201.0
259.8641 19674.0
259.9071 10674.0
260.1981 2534.0
260.8719 1797.0
260.9162 1159.0
261.1993 354.0
261.8619 21751.0
262.8677 1026.0
263.8613 1938.0
263.9069 643.0
264.0074 276.0
265.9400 131.0
266.8907 216.0
267.9992 320.0
269.9290 1221.0
269.9767 859.0
270.1088 256.0
270.1451 227.0
271.1318 158.0
272.1626 176.0
276.9306 119.0
277.8752 21453.0
278.8823 2210.0
279.8716 22006.0
279.9621 313.0
280.8786 1057.0
281.8728 2385.0
281.9811 250.0
282.1463 315.0
283.9110 919.0
283.9574 245.0
284.1942 183.0
284.9025 359.0
286.7977 1916.0
286.8994 110.0
287.9420 4352.0
288.1586 253.0
288.7932 183.0
288.9992 198.0
290.0262 434.0
292.0009 125.0
294.1835 207.0
295.8885 5526.0
296.1660 114.0
297.9759 107.0
298.1427 1046.0
299.1448 181.0
300.0832 753.0
300.1560 1658.0
301.1525 315.0
301.9206 309.0
302.1546 164.0
304.8090 2825.0
304.8938 146.0
305.9531 4914.0
306.8030 298.0
307.0113 3425.0
308.0145 478.0
308.8604 116.0
309.0110 408.0
312.1942 314.0
316.1527 1285.0
317.1490 200.0
318.0954 526.0
321.1582 617.0
322.1575 113.0
322.8192 2206.0
323.9130 930.0
323.9661 175.0
324.1533 131.0
324.8211 264.0
325.9114 175.0
326.0014 336.0
326.8606 168.0
328.1871 1070.0
329.2158 560.0
333.9433 944.0
338.1856 415.0
340.8335 254.0
341.9238 1201.0
342.1636 297.0
343.1164 158.0
343.8173 125.0
343.9094 281.0
344.1516 214.0
344.9581 1154.0
346.6865 155.0
346.9522 133.0
347.2281 6872.0
348.2343 1505.0
349.2366 271.0
351.9537 645.0
355.1993 213.0
355.8474 144.0
359.1965 206.0
360.1367 215.0
361.8699 446.0
361.9049 220.0
362.1584 148.0
362.9694 120.0
363.1562 154.0
367.2398 190.0
368.0078 124.0
368.2208 250.0
369.1773 1060.0
369.9198 507.0
370.1843 297.0
371.1171 449.0
371.2220 108.0
373.8617 143.0
379.1903 408.0
379.8795 1212.0
379.9840 125.0
380.9361 239.0
382.9345 180.0
383.2284 269.0
385.2521 240.0
385.8614 146.0
387.1887 1137.0
388.1916 239.0
389.1327 515.0
391.2362 147.0
393.2068 134.0
397.1678 418.0
397.8911 351.0
398.1808 145.0
398.9485 213.0
399.2295 250.0
401.2368 209.0
404.9817 105.0
409.0143 939.0
411.2222 285.0
413.0044 115.0
413.1701 325.0
413.2466 240.0
414.1671 105.0
415.1839 3491.0
415.8514 193.0
416.1849 707.0
417.1922 212.0
417.9369 766.0
421.2294 149.0
422.2052 261.0
423.2181 121.0
426.2376 103.0
427.2230 113.0
429.2413 131.0
431.1802 312.0
433.8608 287.0
437.7348 129.0
439.2294 521.0
440.2399 123.0
442.2200 141.0
442.9309 215.0
444.2468 642.0
444.9877 116.0
445.2347 293.0
446.2405 113.0
447.2663 110.0
452.2406 141.0
453.1945 111.0
454.2649 212.0
455.2574 181.0
456.2150 368.0
457.1992 588.0
458.1988 172.0
462.2563 5559.0
463.2616 1550.0
464.2630 365.0
466.2014 271.0
467.1801 152.0
467.2714 264.0
472.2727 299.0
472.8736 119.0
474.2258 327.0
478.2380 180.0
479.2331 320.0
480.2388 150.0
482.2648 497.0
483.2585 389.0
484.2049 2777.0
485.2064 791.0
486.2103 166.0
487.3648 862.0
488.3643 265.0
489.3132 2443.0
490.0632 115.0
490.2588 270.0
490.3227 566.0
490.8802 212.0
491.2693 190.0
496.2521 3809.0
497.2603 967.0
498.2593 171.0
500.2699 178.0
502.2144 4011.0
503.2235 1024.0
504.2352 159.0
510.2581 228.0
528.2691 556.0
529.2766 169.0
551.2771 165.0
552.2708 155.0
553.2737 424.0
554.2772 156.0
557.3376 197.0
563.2651 115.0
569.2924 488.0
569.3026 255.0
570.2834 239.0
570.2964 246.0
571.2956 140.0
575.3420 2260.0
576.3451 812.0
577.3571 183.0
579.2932 492.0
580.2797 370.0
587.3084 366.0
588.3080 161.0
593.9397 333.0
597.2974 7189.0
598.3041 2342.0
599.3071 433.0
607.2949 162.0
615.3049 738.0
616.3090 258.0
628.3660 158.0
646.3806 3422.0
647.3880 1409.0
648.3875 297.0
682.3867 126.0
692.3739 426.0
693.3799 243.0
710.3861 2328.0
711.3869 922.0
743.4035 571.0
744.3955 469.0
761.4022 7919.0
762.4077 3771.0
763.4150 906.0
763.4175 919.0
764.4044 166.0
764.4239 194.0
807.4310 419.0
874.4885 2345.0
875.4966 1273.0
876.4985 451.0
877.4977 142.0
END IONS
BEGIN IONS
TITLE=Spectrum 1YAAELHLVHWNTK_mz791.csv DRIFT_TIME=15.9011 15.920601 15.882 16.0032 15.937599 15.654301 15.8881 15.910301 16.0877 16.1285 15.9368 16.1882 16.1034 16.1134 16.111 16.1464 16.011 16.1138 16.1908 16.4903 16.068 16.1102 16.2375 16.2329 16.1984 16.3305 16.1861 16.2834 16.5631 16.3192 16.4594 16.4882 16.3175 16.4277 16.4229 16.8706 16.5081 16.4201 16.6152 16.751 16.8845 16.8502 16.4085 17.1963 16.897 17.9745 16.9222 17.1119 17.7402 17.1933 18.3811 17.5637 17.7905 17.9151 18.9737 18.215 18.7413 19.9359 20.0532 32.8878 20.9444 25.9577 25.4967 22.4441 21.968 26.0876 26.1783 34.9353 25.7546 25.5069 23.9142 29.7046 30.7891 27.7393 26.759 27.0421 31.271698 27.1915 32.1333 33.0331 28.8261 28.8639 33.5711 27.1156 35.2723 33.4784 32.6118 30.0369 35.3727 35.0806 31.921501 31.913002 31.834702 31.938301 45.0394 31.8279 37.0449 44.8815 37.3167 37.5377 37.1666 33.5878 33.7036 41.5915 46.9758 48.813 34.8104 44.1324 37.1004 37.1411 45.6467 46.86 46.9061 38.2953 38.2163 38.4159 38.6689 38.2184 49.4071 38.0706 39.7863 38.4683 48.2564 46.7052 52.2904 52.9016 48.8859 60.7194 51.0647 58.7624 49.7782 50.941 56.0234 41.5537 48.2209 49.4128 50.1697 53.0029 52.6902 52.2118 44.274 43.9956 44.2021 43.3592 44.9637 56.0293 60.1671 56.0229 42.1127 54.8138 43.1126 42.45 45.4582 45.2765 45.7256 48.1739 47.7657 48.1263 47.6631 64.7816 47.7284 47.6563 46.2655 66.323 47.0198 50.3265 50.1206 50.545 72.4802 50.1773 69.6708 69.3052 69.2041 66.7924 50.8841 67.9773 69.4067 50.0655 71.1944 70.9725 52.335 69.8132 51.0253 51.5446 51.4473 52.4702 72.7726 56.3393 79.9439 54.5508 60.5191 59.3271 92.9604 83.6445 82.3201 83.7805 86.0626 105.5883 99.7681 100.2291 98.2646 115.3571 95.4528 91.0884 90.4962 91.5723 102.0823 100.2215 103.1979 77.6308 124.2859 123.3984 120.784 127.720795 146.319 141.5895 
PEPMASS=791.415
CHARGE=2+
55.0526 188.0
56.0469 611.0
57.0321 359.0
70.0611 1269.0
72.0768 742.0
74.0554 182.0
83.0551 241.0
84.0396 577.0
84.0754 1578.0
86.0911 650.0
91.0487 447.0
98.9686 188.0
102.0494 483.0
104.0626 858.0
110.0636 1722.0
119.0440 308.0
120.0737 580.0
122.0724 2121.0
129.0935 758.0
129.9565 263.0
130.0790 482.0
132.0713 205.0
136.0667 5769.0
137.0695 613.0
143.0716 380.0
147.1026 289.0
154.1119 498.0
159.0820 1162.0
160.0189 180.0
162.0821 326.0
171.1391 261.0
171.9655 403.0
173.0761 226.0
175.1075 279.0
187.1340 181.0
197.9788 191.0
199.0946 469.0
201.0743 483.0
201.9715 668.0
203.9876 842.0
207.0989 1754.0
208.0992 192.0
210.0139 822.0
215.1272 176.0
215.9869 340.0
223.1406 366.0
227.0895 433.0
228.1042 197.0
230.1355 362.0
231.9619 179.0
234.1132 166.0
235.0928 1945.0
236.0951 305.0
237.1179 165.0
243.1269 131.0
248.1456 1577.0
249.1484 274.0
251.1342 560.0
273.1093 139.0
283.2447 160.0
284.0918 147.0
294.1946 242.0
295.1804 145.0
296.1299 248.0
301.1030 138.0
306.1261 574.0
307.1195 117.0
309.2627 128.0
312.1993 256.0
314.1522 204.0
319.0310 268.0
323.2054 142.0
340.1686 345.0
343.1352 161.0
344.1703 204.0
345.1536 452.0
350.1962 506.0
355.0088 225.0
355.1746 123.0
357.2264 358.0
362.1794 2052.0
363.1832 385.0
364.2154 158.0
373.9471 142.0
378.1882 149.0
380.1723 238.0
385.1803 136.0
390.9769 141.0
407.1730 596.0
408.1669 195.0
408.9820 5336.0
409.9891 781.0
410.9769 593.0
422.0976 1484.0
422.2707 338.0
423.1034 222.0
423.1920 229.0
423.2685 110.0
435.1602 1336.0
436.1649 358.0
438.1636 272.0
440.1069 175.0
444.9595 396.0
451.2056 265.0
453.2411 141.0
463.2810 127.0
466.0067 120.0
477.2007 137.0
480.9343 542.0
481.9337 166.0
486.1669 108.0
487.2450 362.0
490.2310 237.0
498.9336 12670.0
499.9417 2721.0
500.9351 3318.0
501.9438 567.0
502.9271 796.0
503.2327 170.0
503.9521 222.0
505.9629 108.0
507.9671 163.0
511.2531 187.0
513.2279 152.0
520.2422 375.0
521.2583 128.0
522.2328 226.0
524.2867 158.0
525.2451 107.0
525.2882 121.0
530.2341 166.0
531.2306 179.0
536.2681 187.0
537.9607 168.0
539.1998 112.0
547.0466 834.0
548.0411 139.0
548.2493 2128.0
549.2516 682.0
550.2603 144.0
555.9622 640.0
556.9536 154.0
557.9523 274.0
558.9488 120.0
559.9538 193.0
564.2729 185.0
564.2899 221.0
566.2885 150.0
570.9217 162.0
572.2098 105.0
575.8952 424.0
576.8785 144.0
593.8989 15343.0
594.9042 2590.0
595.9018 1521.0
612.9722 1213.0
613.9812 220.0
614.9644 222.0
616.9618 127.0
627.2805 156.0
629.8787 1204.0
630.8719 235.0
631.8602 610.0
632.3145 279.0
633.8777 211.0
650.9177 3507.0
651.9185 514.0
652.9192 373.0
653.3656 118.0
654.9196 121.0
657.3036 527.0
658.2945 209.0
663.3358 152.0
667.2889 188.0
667.8281 203.0
668.2771 257.0
673.3228 159.0
683.8613 211.0
685.2927 2654.0
686.2952 1108.0
686.8918 946.0
687.2949 298.0
687.8896 123.0
688.8676 788.0
689.8696 214.0
690.8581 195.0
705.3574 154.0
724.8428 173.0
734.3844 129.0
740.8717 365.0
760.8054 179.0
762.8058 116.0
770.3716 281.0
784.3633 1120.0
785.3613 500.0
786.3739 169.0
787.3502 205.0
790.5348 125.0
791.4942 503.0
792.5076 237.0
793.5028 360.0
793.5763 153.0
795.4908 301.0
798.3648 622.0
799.3626 325.0
800.3744 197.0
897.4268 1380.0
898.4319 826.0
899.4297 255.0
921.9631 118.0
1034.4808 1230.0
1035.4808 733.0
1036.4809 266.0
1036.4929 260.0
1147.5628 303.0
1148.5715 227.0
END IONS
BEGIN IONS
TITLE=Spectrum 1YGDFGTAAQQPDGLAVVGVFLK.csv DRIFT_TIME=11.2894 11.0708 11.1495 11.3452 11.2621 11.1312 11.3596 11.3537 11.394 11.241 11.2249 11.1512 11.3683 11.4485 11.3479 11.3924 11.332 11.4024 11.4466 11.3276 11.4431 11.4704 11.452 11.7623 11.5711 11.5771 11.7362 11.7586 11.7165 11.7283 11.8688 11.7976 11.7986 11.8816 12.0325 12.0923 12.5461 13.0232 14.1426 15.354 15.652 17.6197 16.0692 16.2075 17.997 18.8381 19.5018 19.3661 23.0776 20.5703 21.7125 21.4959 21.3042 20.1769 24.0131 23.7019 24.7418 24.1321 25.8592 27.134 27.4592 23.9368 24.6757 26.6495 25.2045 26.4215 27.2137 28.2999 27.0234 28.3459 28.0946 29.1974 29.9299 28.9118 28.5159 29.9858 24.7886 30.1968 30.3355 30.0998 30.8356 31.309402 31.854797 30.8811 32.1125 26.911 32.3027 27.0518 28.8136 28.036 39.4625 32.8322 33.443 35.6245 33.6969 37.2108 34.8297 37.3083 33.2541 34.1675 34.9656 35.1252 35.3232 35.3417 35.7705 36.5548 36.8568 36.5129 36.2884 37.5211 31.2756 31.107101 36.5312 31.115501 37.0787 31.174599 31.0363 37.2252 42.0385 42.2065 37.0078 41.6688 38.0333 32.7985 39.2365 39.7337 39.2279 39.145 39.2007 33.8271 39.6245 33.7636 41.5873 40.5348 40.5993 41.3092 39.8195 38.9622 41.3063 41.5062 34.1325 43.7457 34.2577 43.0859 34.0594 35.0571 34.7015 42.5299 40.8765 41.7741 42.053 43.4097 43.8186 46.6594 45.2341 44.0222 46.7305 45.6493 37.2263 47.0116 37.1114 47.003 35.7451 35.4005 46.3733 35.8284 47.0392 35.5508 46.233 34.7681 53.0329 52.9731 47.0602 54.1066 46.8457 46.9612 47.6517 35.6975 47.2654 48.3353 48.9283 48.9756 50.5527 49.8176 36.6932 36.7329 37.2197 48.9501 48.7701 49.8142 50.1581 51.101 50.6001 52.927 50.996 51.3611 52.7077 51.2493 39.9413 39.784 54.0345 39.4462 53.6287 56.3322 42.9354 60.3051 59.9222 43.0453 56.2302 54.5576 42.8613 56.906 56.874 59.4477 56.3862 56.5314 58.4485 58.8108 59.7398 46.0413 59.4365 59.7035 45.2158 61.8134 61.3873 68.0812 67.6463 67.2902 64.0573 65.9445 69.6161 68.4361 50.9183 67.3632 78.375 79.8379 100.8141 99.0973 77.0396 80.4482 137.2718 136.2905 139.6998 124.1956 
PEPMASS=1127.0825
CHARGE=2+
56.0481 352.0
57.0324 221.0
70.0627 331.0
72.0791 412.0
84.0416 351.0
84.0765 685.0
86.0942 298.0
88.0355 145.0
101.0663 334.0
104.0666 807.0
110.0674 146.0
119.0459 214.0
120.0755 2223.0
121.0808 207.0
122.0760 1708.0
129.0976 387.0
130.0827 390.0
136.0707 2141.0
137.0754 298.0
141.0600 374.0
147.1095 240.0
157.0924 197.0
171.1077 176.0
171.1445 160.0
171.9673 313.0
192.0943 137.0
193.0945 203.0
200.0950 258.0
201.9764 779.0
203.9892 177.0
205.0927 283.0
212.0944 435.0
213.0878 216.0
215.9946 378.0
219.1068 141.0
221.0811 327.0
235.1029 535.0
239.1048 193.0
256.1571 187.0
260.1892 761.0
264.1271 165.0
288.1257 432.0
295.1340 123.0
306.1342 285.0
328.1546 130.0
331.1650 149.0
336.1073 1747.0
337.1116 332.0
355.1908 411.0
359.1588 228.0
362.1225 373.0
372.1767 111.0
377.1363 206.0
381.1314 218.0
383.1798 379.0
392.1362 234.0
399.1832 137.0
403.1456 175.0
407.1532 229.0
407.2533 1766.0
408.2585 497.0
411.1863 148.0
421.1641 177.0
426.2318 289.0
429.2004 244.0
430.1967 274.0
432.1824 142.0
436.2107 146.0
438.1589 191.0
446.2004 147.0
448.2027 308.0
454.2192 1132.0
455.1982 380.0
456.2176 163.0
460.1710 451.0
464.1777 166.0
466.0218 347.0
466.2157 340.0
474.1848 238.0
478.1761 358.0
483.1705 156.0
486.1935 251.0
492.1912 143.0
494.2099 406.0
495.1860 208.0
498.9466 348.0
500.2314 136.0
500.9450 130.0
501.9883 211.0
503.9917 187.0
506.3229 477.0
509.1959 279.0
511.2474 150.0
512.2225 216.0
513.1929 199.0
516.3017 129.0
522.2190 184.0
525.2906 450.0
531.2062 524.0
532.2097 175.0
539.2456 152.0
540.2051 468.0
541.2146 177.0
545.2225 108.0
547.2100 160.0
549.2141 439.0
550.2109 147.0
553.2801 1492.0
554.2876 439.0
555.2938 141.0
555.9711 3853.0
556.9773 1098.0
557.2555 201.0
557.9717 1202.0
558.2489 176.0
558.9749 218.0
559.9632 315.0
563.2259 116.0
563.3396 2644.0
564.3408 866.0
565.2467 756.0
565.3391 174.0
566.2208 297.0
575.0524 249.0
576.2568 207.0
577.2402 115.0
578.2127 251.0
582.2689 261.0
583.2842 124.0
591.9561 401.0
592.2646 172.0
592.9526 121.0
593.2814 163.0
594.2683 160.0
595.2470 144.0
596.2223 239.0
602.2448 300.0
603.2548 167.0
605.2370 142.0
610.3080 222.0
612.9922 4000.0
613.2473 247.0
613.9975 965.0
614.2544 128.0
614.9940 897.0
615.9964 169.0
616.9820 209.0
618.2400 131.0
620.2528 410.0
621.2565 204.0
622.2631 265.0
623.2308 677.0
624.2313 247.0
624.3589 142.0
637.2632 119.0
639.2812 118.0
641.2408 559.0
642.2451 151.0
648.9691 1180.0
649.2429 409.0
649.9790 296.0
650.2434 230.0
650.9439 3154.0
651.9423 653.0
652.3488 736.0
652.9415 721.0
653.3523 270.0
653.9383 134.0
654.3341 136.0
654.9286 221.0
662.4060 1768.0
663.4053 817.0
664.3112 306.0
664.4149 243.0
665.3170 170.0
666.2703 210.0
667.2634 312.0
667.8481 131.0
668.2638 205.0
676.2715 253.0
681.3453 312.0
682.3418 137.0
684.2766 228.0
685.2947 107.0
688.8925 1505.0
690.8944 426.0
691.8918 108.0
692.3185 111.0
693.2972 279.0
694.2679 787.0
695.2645 375.0
709.3687 537.0
710.3446 358.0
711.3624 155.0
712.2737 757.0
713.2850 290.0
720.2854 134.0
721.2930 116.0
724.8692 354.0
726.8595 203.0
738.2815 134.0
741.7571 274.0
748.2930 122.0
755.3235 149.0
760.8489 377.0
761.4665 696.0
762.4749 360.0
762.8319 343.0
763.3771 122.0
764.3288 125.0
764.8481 113.0
765.3065 538.0
766.3067 280.0
780.4136 233.0
781.3902 164.0
782.3462 114.0
783.3189 388.0
784.3169 300.0
792.3508 104.0
798.7983 111.0
800.3280 266.0
801.3267 122.0
802.9385 132.0
808.4304 490.0
809.4154 256.0
832.5015 640.0
833.4997 315.0
834.5110 139.0
837.4275 103.0
893.3574 180.0
911.3590 314.0
912.3658 176.0
924.7243 107.0
928.3887 184.0
955.4936 210.0
956.4969 148.0
1002.5995 363.0
1003.6046 245.0
1022.4015 177.0
1039.4468 262.0
1214.6702 987.0
1215.6776 855.0
1216.6819 314.0
1325.7081 290.0
END IONS
