BEGIN IONS
TITLE=Spectrum 1GLYPHOS_DFYELEPHK_1176_01.csv DRIFT_TIME=16.5173 16.4813 16.3994 16.1715 16.383 16.9007 16.0681 16.7062 19.2262 16.4919 16.1997 16.5152 17.3818 16.4906 16.8822 16.4499 17.3696 16.7661 17.2631 16.8826 22.1403 18.2772 18.1899 16.1511 20.4043 17.436 18.1876 17.5706 21.7975 18.0749 20.9337 19.8324 18.5236 19.3645 20.6753 20.1721 19.1207 19.3029 21.1165 23.0964 22.2786 21.1575 22.0649 24.1984 26.3842 24.2034 23.3266 24.2779 25.1609 24.8828 25.1911 24.3574 25.7327 26.2609 26.1007 29.1982 26.0181 28.4822 28.6825 28.9235 39.1755 39.72 28.3764 26.1972 32.2181 31.604301 29.1707 29.8494 30.84 30.8054 30.8118 32.1494 28.2522 28.4319 30.6618 30.8557 31.8624 33.6811 33.4931 33.6681 32.6931 41.8405 34.5862 31.3153 35.1259 32.0491 37.0332 35.3134 35.6341 27.3428 33.3508 45.3826 45.5245 37.5119 39.5084 29.8627 32.8763 32.6753 33.2515 41.3525 38.2192 38.0579 34.5692 37.7854 34.3692 38.853 39.4769 55.4577 43.818 49.2164 38.5242 36.7617 33.9085 35.6987 39.3148 44.2061 53.6274 39.8137 42.2897 39.0021 50.4826 45.0495 35.9896 44.3466 44.1514 43.0924 43.263 53.9543 48.7558 43.6663 50.6672 50.7154 47.2805 51.3859 45.957 44.708 42.8383 58.9586 49.4132 55.2193 48.9678 47.6665 72.1248 57.289 66.9646 62.0645 48.0847 61.9594 42.6975 60.3483 62.0168 48.1851 47.4702 53.831 47.0433 47.7427 75.6739 56.7186 78.2328 48.3819 64.658 64.0108 66.1626 65.3517 70.9007 83.3809 76.8944 80.5956 81.2534 81.788 84.3265 102.2268 103.0768 97.7894 106.7527 124.1169 125.4693 129.5659 135.2102 
PEPMASS=589.283
CHARGE=2+
61.0411 241.0
70.0655 463.0
72.0815 205.0
80.0125 373.0
84.0796 999.0
86.0966 630.0
87.0453 327.0
89.0591 1321.0
98.9866 176.0
104.0705 294.0
110.0267 1671.0
110.0704 475.0
120.0802 1330.0
121.0639 715.0
122.0811 2757.0
123.0840 183.0
129.1021 441.0
130.0640 229.0
130.0863 215.0
133.0856 1582.0
134.9638 303.0
136.0749 4730.0
137.0792 475.0
140.0444 146.0
144.9927 803.0
147.0772 277.0
147.1133 383.0
149.0943 149.0
152.9731 211.0
156.0779 141.0
159.0189 1333.0
163.0028 195.0
165.0895 606.0
166.0559 277.0
175.0837 365.0
175.1195 885.0
177.1134 394.0
178.0531 332.0
179.0187 208.0
187.1427 124.0
190.0845 194.0
191.1021 144.0
193.1210 119.0
194.9944 2660.0
196.0037 230.0
196.9915 682.0
205.0224 753.0
206.0354 220.0
207.1246 394.0
209.1177 194.0
211.1198 203.0
213.0034 185.0
214.9167 689.0
215.1379 160.0
217.0974 212.0
230.9907 189.0
232.9291 626.0
235.1058 7083.0
236.1101 1112.0
237.1088 125.0
247.2052 835.0
248.2119 134.0
249.9841 331.0
250.9375 136.0
253.1301 352.0
253.9640 166.0
255.0268 219.0
255.1068 321.0
255.9574 115.0
256.0333 546.0
258.0340 210.0
258.1423 138.0
258.9729 131.0
261.0272 121.0
263.1031 677.0
264.1045 157.0
264.9194 530.0
265.1168 665.0
266.1629 307.0
272.1358 115.0
273.0115 873.0
273.2211 115.0
274.0193 249.0
274.9474 729.0
282.1381 148.0
282.9264 234.0
283.1372 282.0
284.1696 1186.0
285.1705 179.0
286.9329 337.0
289.9835 205.0
291.2306 1472.0
292.2326 268.0
293.1114 845.0
304.8945 122.0
305.9524 162.0
307.0082 1168.0
308.0072 152.0
309.0016 150.0
312.1462 294.0
316.9351 229.0
317.0828 140.0
318.9207 111.0
319.0741 169.0
321.0483 191.0
324.9566 135.0
334.9496 132.0
335.2520 135.0
341.0322 108.0
342.1674 120.0
342.9379 255.0
344.8773 147.0
347.9721 148.0
348.8214 152.0
348.9607 113.0
349.8957 238.0
353.0832 152.0
355.0661 232.0
357.9673 123.0
360.9454 123.0
363.2101 348.0
364.1621 190.0
366.8357 284.0
366.9063 144.0
367.9075 474.0
368.9015 269.0
369.9096 167.0
371.0962 197.0
372.1779 119.0
375.9740 118.0
381.2209 3855.0
382.2244 863.0
382.9121 135.0
383.2343 110.0
384.9134 134.0
385.9195 146.0
386.9080 415.0
406.2030 116.0
408.9264 161.0
409.1625 238.0
409.9295 111.0
410.9225 529.0
411.1595 265.0
411.1633 183.0
411.1644 299.0
411.2915 358.0
411.9340 126.0
412.2674 391.0
412.8574 113.0
413.1135 213.0
413.2776 107.0
423.0776 539.0
424.0772 109.0
426.1610 294.0
426.9303 258.0
428.9329 453.0
429.1718 321.0
447.2590 309.0
471.1875 239.0
474.8360 118.0
492.2532 424.0
493.2551 192.0
510.2648 377.0
511.2600 137.0
555.2115 127.0
573.3957 179.0
591.2841 1065.0
592.3069 514.0
593.3190 152.0
623.3463 534.0
624.3562 214.0
752.3940 809.0
753.3918 346.0
754.3641 139.0
812.3207 173.0
915.4506 675.0
916.4533 370.0
916.4592 369.0
1055.4394 152.0
END IONS
BEGIN IONS
TITLE=Spectrum 1GLYPHOS_DYYFALAHTVR_1356.csv DRIFT_TIME=16.6173 16.6485 16.1042 16.4023 16.8392 16.2601 16.7323 16.6428 16.4357 16.4198 17.358 16.4866 16.9008 16.9016 17.5465 17.0869 16.893 18.1769 17.9456 20.1976 17.5164 20.3389 17.5927 18.3794 20.0447 21.1058 18.7843 21.0708 19.889 22.9253 20.6753 18.7979 20.3314 21.5406 20.2369 20.3535 20.0809 18.9046 19.3504 23.8079 22.3703 22.0382 22.4069 26.5515 24.0454 24.3413 21.9358 29.5791 25.7118 25.8065 28.0782 26.9728 29.6042 25.6232 25.8725 29.0744 27.945 29.2791 29.1385 31.1251 34.3305 29.3729 39.1074 29.0551 28.2444 31.4234 31.6917 31.375801 30.2573 34.6932 31.904999 31.2164 30.2607 36.6658 35.0039 32.9814 34.6034 37.4537 35.5941 35.6271 33.9628 33.4214 34.1116 36.5646 36.5958 36.0707 35.3992 34.0079 31.1572 45.1571 33.9169 47.0837 31.889801 38.9966 39.4285 34.1077 33.2686 33.1905 33.1878 39.1566 39.6883 55.246 39.4199 34.9202 44.0111 43.3152 40.9183 43.9802 38.8411 38.3966 38.283 43.8528 51.6959 46.4473 37.1702 38.3195 41.8168 39.6225 48.6108 43.8396 42.1672 39.3823 39.8216 40.1584 44.0795 51.3723 42.6132 51.3511 50.8017 50.2549 43.0212 51.8075 44.9692 41.7904 46.5896 44.1946 55.6932 52.7597 50.354 53.4453 57.9861 46.0833 55.4789 45.8181 52.9247 46.8371 48.9782 46.2423 47.0799 62.2503 51.298 55.0139 48.0749 53.2407 56.5369 57.1594 51.978 57.2162 47.3252 50.2435 57.1923 51.6475 58.2179 51.2196 49.9807 51.6024 51.9157 66.8059 52.7593 53.0241 62.6866 52.4879 54.6045 66.7546 71.9508 55.0286 65.4658 65.5185 57.822 69.1914 68.8364 57.1345 72.7574 77.2971 78.1948 77.9519 72.3615 71.6215 76.0211 77.0911 72.4259 63.7464 82.8753 77.4479 78.333 86.6938 87.4343 88.1024 88.9221 93.2776 93.3443 98.0604 96.5421 95.2877 95.7437 98.8021 105.0952 104.8543 103.7248 117.4407 131.1537 129.2669 129.2433 130.1439 141.2338 146.7432 146.2194 148.363 148.9969 155.6828 
PEPMASS=678.343
CHARGE=2+
70.0630 263.0
72.0796 1099.0
73.0268 171.0
84.0777 635.0
86.0943 2421.0
87.0438 257.0
87.0984 162.0
89.0566 804.0
104.0671 472.0
110.0681 902.0
120.0777 883.0
121.0628 268.0
122.0776 4463.0
123.0808 254.0
129.0981 2238.0
130.0849 352.0
133.0823 707.0
136.0714 6145.0
137.0751 553.0
143.1140 2469.0
144.0614 232.0
144.1185 254.0
146.0571 158.0
147.1100 704.0
155.1119 144.0
157.1295 166.0
158.0902 199.0
159.0155 237.0
159.0854 414.0
160.0224 116.0
160.0923 150.0
165.0868 201.0
169.0937 349.0
169.1298 148.0
171.1091 567.0
173.1205 128.0
175.1136 1523.0
177.1046 196.0
178.0462 343.0
180.0292 228.0
183.1067 192.0
185.1225 135.0
191.1124 178.0
197.1594 164.0
201.1211 228.0
209.1017 306.0
210.0201 133.0
212.9734 177.0
214.9117 197.0
219.1058 150.0
228.1258 181.0
229.1149 203.0
230.9849 305.0
231.0908 120.0
232.9240 167.0
233.0871 131.0
239.1086 270.0
240.1269 1092.0
241.1322 162.0
242.1435 317.0
242.1808 241.0
244.0859 155.0
247.1990 465.0
248.9954 126.0
249.9783 390.0
251.0948 5652.0
252.0985 1031.0
253.1037 133.0
255.0989 173.0
258.1376 263.0
262.1300 298.0
263.1381 162.0
263.9754 113.0
271.1716 175.0
272.1523 157.0
273.0050 414.0
274.0132 826.0
274.1815 242.0
275.2015 547.0
276.2051 116.0
279.0905 1050.0
280.0918 188.0
281.0931 306.0
283.1376 691.0
284.1389 157.0
285.1472 160.0
286.1360 118.0
289.9781 188.0
291.0399 155.0
291.2240 597.0
292.0264 205.0
296.1921 188.0
297.0682 151.0
297.1519 128.0
299.1652 434.0
300.9048 252.0
306.9997 1624.0
308.0002 291.0
308.9980 231.0
310.1661 973.0
311.1315 406.0
311.2921 116.0
312.1427 202.0
318.9182 191.0
322.1796 144.0
327.1255 122.0
331.9628 134.0
334.1345 117.0
335.0116 597.0
337.0137 115.0
342.9328 190.0
343.1473 197.0
343.2260 248.0
344.1774 126.0
344.9443 206.0
345.9473 151.0
347.9433 158.0
353.0230 262.0
353.2085 142.0
357.1701 117.0
357.9663 365.0
360.9464 115.0
363.9488 220.0
364.9574 111.0
365.9446 335.0
370.2361 455.0
370.9866 152.0
371.2192 412.0
372.2283 102.0
375.2263 526.0
375.9768 310.0
382.1657 191.0
384.9123 119.0
386.9015 169.0
386.9867 361.0
387.9736 116.0
388.2803 396.0
393.2165 190.0
397.1302 110.0
398.2372 114.0
401.2739 160.0
401.9195 153.0
402.2360 245.0
404.9992 170.0
408.1835 171.0
410.9239 162.0
418.8940 149.0
419.9226 245.0
421.9259 257.0
423.2473 223.0
425.9483 337.0
426.1798 161.0
428.9314 183.0
433.0298 218.0
442.1518 754.0
443.1571 203.0
443.9597 645.0
444.1932 184.0
446.9496 161.0
447.9385 127.0
448.2055 154.0
449.0068 507.0
449.2173 226.0
452.9110 167.0
458.9455 125.0
459.9302 242.0
460.9526 144.0
467.1242 249.0
471.9517 102.0
476.9475 235.0
477.2417 181.0
478.9500 144.0
479.9329 109.0
485.1407 253.0
494.2799 249.0
494.9103 108.0
495.2563 335.0
499.2495 123.0
500.9764 150.0
512.2831 883.0
513.2881 245.0
515.9117 401.0
517.3120 236.0
525.2676 637.0
526.2729 197.0
543.2756 163.0
555.2357 150.0
564.2413 125.0
566.2882 205.0
567.2928 130.0
570.2832 122.0
572.9304 192.0
581.3192 147.0
583.3158 1494.0
584.3186 376.0
618.3674 477.0
619.2498 334.0
619.3714 140.0
620.2531 144.0
677.3235 186.0
679.4085 108.0
680.3776 588.0
681.3838 329.0
696.3944 1053.0
697.4039 423.0
717.4317 222.0
767.4309 1853.0
768.4372 851.0
769.4410 273.0
831.4735 331.0
914.5020 1252.0
915.4994 666.0
960.5052 650.0
961.5116 275.0
1059.5573 176.0
1077.5693 409.0
1078.5561 290.0
1116.5804 275.0
1117.5952 196.0
1187.6376 263.0
END IONS
BEGIN IONS
TITLE=Spectrum 1GLYPHOS_HLQIIYEINQR_1426_01.raw.csv DRIFT_TIME=16.6227 30.166 34.4592 16.5446 24.3203 153.9036 49.5184 50.8133 154.8563 125.4416 108.2318 20.0217 141.6637 72.1918 16.888 34.6111 24.1149 125.4658 109.2353 30.263 23.5573 16.877 142.197 29.5035 49.6061 73.1751 179.0998 49.3118 155.4863 84.5052 16.2296 31.778297 21.0186 44.3258 176.263 50.5535 51.9602 33.4664 31.113098 53.5944 16.4501 18.3481 37.9986 71.8412 22.5017 85.1905 29.2971 16.6491 20.6501 27.675 52.3734 67.5553 149.0048 17.5248 32.667 124.6247 16.6227 26.7661 16.4129 124.3371 18.8375 62.6365 149.6646 139.4854 24.4585 24.5333 37.9252 68.8977 72.8559 29.8957 17.0678 80.8458 31.6763 45.1747 155.1488 108.9435 73.5804 56.9402 16.4891 50.22 35.7333 30.4933 21.5021 83.6697 49.1266 43.2146 93.95 46.9556 40.0354 32.212 16.4662 22.8215 88.1094 46.9551 26.2883 67.2025 122.1222 148.5124 43.0148 26.7939 27.635 56.6154 54.9728 39.8585 68.7142 29.0279 94.4302 37.0196 45.1486 104.442 24.518 31.646599 31.219498 80.0467 24.248 29.2567 61.1451 54.5594 21.1614 48.5198 23.8313 91.5733 20.9946 48.4237 50.9111 31.9342 37.9065 28.2987 70.2672 52.1994 37.0446 53.4254 53.7823 
PEPMASS=713.897
CHARGE=2+
61.0417 325.0
223.1578 6466.0
251.1538 6132.0
110.0729 5983.0
194.9991 3471.0
1176.6543 2835.0
361.2046 2490.0
379.2149 2325.0
1177.6597 2111.0
935.5137 1834.0
822.4217 1703.0
175.1217 1440.0
1048.5975 1426.0
492.3043 1301.0
86.0983 1288.0
252.1585 1221.0
196.9968 1212.0
936.5093 937.0
823.4272 920.0
224.1623 919.0
205.0301 902.0
122.0840 893.0
1049.5959 883.0
255.0319 858.0
474.8584 788.0
530.3118 756.0
1289.7442 739.0
362.2039 738.0
1178.6583 734.0
659.3598 697.0
110.0302 652.0
242.1546 652.0
159.0229 635.0
432.8354 608.0
1290.7462 567.0
380.2170 531.0
355.2405 517.0
307.0165 514.0
274.9546 469.0
417.2268 456.0
111.0757 443.0
136.0786 438.0
303.1809 410.0
493.3039 409.0
178.1384 407.0
605.3866 403.0
257.0283 399.0
72.0834 381.0
144.9943 379.0
286.9368 359.0
400.2008 357.0
464.3033 349.0
1159.6360 346.0
129.1051 340.0
273.0202 337.0
937.5134 330.0
61.0417 325.0
214.1622 321.0
70.0668 309.0
869.4704 303.0
143.1194 302.0
473.1545 297.0
1160.6478 289.0
1050.6071 274.0
201.1270 259.0
213.0107 249.0
324.9606 247.0
475.1626 246.0
564.2763 242.0
255.1121 241.0
133.0871 240.0
580.3274 236.0
264.9279 233.0
450.8513 229.0
1179.6650 228.0
824.4335 225.0
531.3147 223.0
600.8286 222.0
89.0602 220.0
476.8556 219.0
286.1530 216.0
256.0400 210.0
179.0221 207.0
660.3563 201.0
383.1691 195.0
434.8311 193.0
645.3426 191.0
498.7535 189.0
304.9025 188.0
244.1671 180.0
84.0841 179.0
134.9660 179.0
717.3720 175.0
344.1822 168.0
214.9192 163.0
474.2858 163.0
870.4814 163.0
1158.6624 161.0
414.8218 158.0
232.9358 155.0
199.1859 152.0
496.9359 152.0
402.2549 150.0
306.8977 147.0
465.3089 145.0
258.9778 144.0
688.3477 143.0
293.1164 141.0
476.8015 141.0
768.4574 140.0
185.1688 139.0
234.1323 139.0
258.0332 138.0
582.2735 136.0
196.0020 133.0
225.1260 132.0
415.1316 131.0
427.2105 130.0
189.0515 128.0
363.2078 127.0
206.0327 126.0
577.4004 126.0
181.0225 124.0
423.0926 124.0
381.2228 122.0
282.9379 119.0
334.9878 116.0
206.1328 115.0
519.2858 114.0
356.2435 112.0
326.9587 107.0
438.1417 107.0
418.2228 106.0
END IONS
BEGIN IONS
TITLE=Spectrum 1GLYPHOS_LLSYVDDEAFIR_1439_01.csv DRIFT_TIME=16.3538 16.5499 16.2332 16.4149 16.6617 16.0751 16.3407 16.2764 16.9118 28.2173 16.2177 16.9246 16.6691 16.2727 16.1803 16.3406 17.0117 17.4205 16.7309 16.8366 17.4276 17.4559 16.9165 22.2428 18.2855 18.3293 16.336 18.7434 20.729 17.8616 20.2595 18.2931 20.8367 20.0279 20.4085 18.1122 19.9456 22.3207 20.0781 20.0713 19.0118 19.3979 21.8294 20.9035 24.8025 21.2629 25.0455 24.2716 24.2904 28.0148 28.1043 24.4499 23.326 25.2598 23.4758 25.293 23.9849 23.9696 24.8075 26.9266 27.0162 26.2918 27.8785 28.1761 31.033401 28.2173 31.1069 27.0109 27.1784 25.4812 28.6661 28.9924 30.2791 32.1846 39.4736 33.3559 28.2256 29.9486 30.1179 29.4311 30.1931 30.633 29.2139 31.725502 32.7326 32.0488 34.9618 33.1667 33.4987 30.9069 36.7572 34.6428 38.1213 27.4348 40.3082 34.982 45.4712 44.977 45.1487 40.0739 28.256 33.3591 33.0091 38.3745 42.292 44.4647 38.7586 44.7595 38.7023 37.9274 38.4642 41.2677 45.58 37.6248 42.1612 37.5077 31.936897 39.6776 45.0215 32.9174 45.169 47.6355 46.3661 49.909 52.4572 52.0706 46.002 52.5656 48.7572 50.122 41.078 51.746 58.8282 57.0609 59.8569 59.2832 50.863 42.117 54.3778 67.8852 61.4773 61.6985 53.6091 53.4661 43.3898 54.1055 54.6026 64.8095 63.312897 64.4423 63.5559 61.8179 57.8849 66.3248 65.6238 48.4806 63.301804 62.7571 55.9181 56.1726 71.1186 71.8426 49.9582 72.604 93.4341 68.1655 75.0387 75.0118 72.3885 71.3655 70.3738 83.1474 72.9299 82.274 75.0118 74.4865 84.3648 103.199 103.9472 87.8041 88.3292 85.1619 85.895 93.4321 90.3629 113.1112 92.2817 93.3801 91.2943 91.3103 91.3779 98.2577 99.6249 101.7361 92.9351 92.1088 93.8201 101.2737 99.9142 96.3276 97.4073 98.8194 105.7493 110.447 113.0657 113.159 107.5051 110.8342 109.5379 109.2714 123.8579 128.3211 128.2335 130.9834 125.1227 124.9366 123.9049 124.633 125.3051 130.4747 133.2681 130.0529 136.3738 136.4953 134.7164 132.8155 156.7551 149.7185 149.1732 145.4352 160.5957 161.721 164.0148 161.3489 158.5032 155.8631 157.048 152.3461 152.3036 176.0326 
PEPMASS=720.8745
CHARGE=2+
55.0567 215.0
61.0417 277.0
69.0714 152.0
70.0670 1394.0
72.0827 2991.0
80.0143 169.0
84.0467 202.0
84.0828 308.0
86.0979 7330.0
86.0983 123.0
87.0470 295.0
87.1010 509.0
89.0606 634.0
104.0737 146.0
110.0297 872.0
110.0748 505.0
115.0899 147.0
120.0829 467.0
121.0688 157.0
122.0835 1413.0
129.1047 718.0
130.0889 228.0
133.0887 871.0
134.9665 133.0
136.0779 7719.0
137.0832 792.0
140.0452 199.0
143.1201 597.0
144.9961 618.0
147.1161 359.0
157.1362 165.0
158.0967 141.0
159.0221 537.0
159.0962 142.0
163.0062 159.0
165.0943 171.0
171.1175 387.0
173.1343 168.0
175.1238 2102.0
176.1259 236.0
177.1170 272.0
178.0557 150.0
179.0243 193.0
184.1102 154.0
185.1680 5050.0
186.1271 225.0
186.1725 821.0
195.0003 2716.0
196.9976 955.0
199.1844 3930.0
200.1876 599.0
201.1283 1028.0
202.1325 184.0
204.1383 1525.0
205.0281 934.0
205.1436 204.0
206.0423 128.0
212.1080 374.0
213.0102 217.0
213.1633 3770.0
214.1648 665.0
214.9208 253.0
223.1126 2325.0
224.1199 348.0
227.1799 1893.0
228.1405 120.0
228.1861 285.0
229.1264 222.0
230.1182 146.0
232.9352 168.0
233.1355 295.0
234.1269 141.0
235.1482 409.0
242.1525 259.0
247.2123 335.0
249.1657 492.0
249.9922 125.0
251.1076 615.0
252.1174 124.0
255.0327 701.0
255.1152 231.0
256.0419 296.0
257.0306 301.0
261.1314 201.0
263.1424 175.0
264.9291 212.0
271.1825 113.0
273.0176 801.0
274.0217 103.0
274.9551 601.0
277.1641 131.0
283.1462 164.0
284.2040 165.0
286.9351 453.0
288.2085 386.0
290.1511 110.0
291.2382 662.0
296.2049 1030.0
297.2096 221.0
304.9043 186.0
304.9501 167.0
307.0137 810.0
308.0107 141.0
310.1833 157.0
313.1962 142.0
314.2140 1348.0
315.1740 386.0
315.2188 246.0
316.1763 111.0
317.0857 168.0
324.9565 144.0
327.1352 589.0
331.2097 382.0
333.0481 108.0
333.1845 713.0
334.9909 124.0
340.1721 184.0
342.9447 140.0
346.1849 374.0
346.9710 188.0
350.1775 368.0
364.1958 214.0
367.9427 165.0
369.2230 166.0
371.2498 126.0
376.2323 411.0
377.1569 145.0
377.2326 114.0
401.9369 119.0
407.9852 129.0
409.0267 257.0
409.1886 133.0
412.2618 154.0
414.2410 187.0
418.2448 137.0
419.2554 128.0
424.1559 215.0
424.8524 136.0
427.2100 172.0
431.2716 204.0
435.2784 371.0
436.2812 125.0
441.1833 537.0
442.1812 139.0
442.8664 221.0
443.9626 425.0
445.9620 316.0
449.2867 154.0
459.2748 372.0
460.2751 102.0
463.2712 189.0
465.2135 131.0
468.1919 108.0
480.2573 973.0
481.2584 207.0
484.8830 127.0
490.1975 130.0
491.1894 242.0
494.9288 164.0
496.9445 141.0
506.3176 554.0
507.3282 207.0
508.8618 118.0
543.2279 164.0
551.3413 238.0
554.2105 135.0
560.2666 355.0
561.2570 150.0
564.2784 310.0
571.2270 350.0
572.2295 149.0
580.3301 204.0
581.2801 103.0
581.3412 172.0
588.2552 672.0
589.2512 293.0
597.3473 486.0
607.4128 248.0
608.4075 151.0
627.3280 418.0
628.3315 226.0
635.3629 953.0
636.3714 366.0
645.3558 365.0
646.3501 164.0
663.4781 146.0
691.3242 122.0
707.3247 176.0
709.3375 118.0
718.2978 281.0
719.3113 152.0
721.4008 177.0
722.3993 530.0
723.4177 416.0
724.3916 198.0
735.3332 287.0
736.3119 166.0
741.3684 496.0
742.3694 260.0
750.3942 963.0
751.3983 424.0
752.3385 137.0
847.3436 207.0
856.4039 594.0
857.4006 276.0
864.3615 375.0
864.3716 305.0
865.4175 2944.0
866.4239 1364.0
867.4281 413.0
953.4172 149.0
964.4857 2016.0
965.4960 1034.0
966.4926 348.0
966.5102 262.0
970.4481 1005.0
971.4490 610.0
972.4435 300.0
981.4160 161.0
1027.4274 144.0
1049.4841 139.0
1050.4784 271.0
1067.4941 2998.0
1068.5013 2027.0
1069.4962 784.0
1070.4928 219.0
1078.6619 305.0
1127.5618 718.0
1128.5759 434.0
1129.5841 165.0
1214.5880 2298.0
1215.5962 1541.0
1216.5929 532.0
1216.6005 535.0
1217.6091 181.0
1230.5641 651.0
1231.5556 404.0
1231.5832 399.0
1232.5778 198.0
1327.6873 153.0
END IONS
BEGIN IONS
TITLE=Spectrum 1GLYPHOS_VAAAFPGDVDR_1117_01.csv DRIFT_TIME=16.3564 16.4375 16.3666 16.3724 16.6789 16.6189 16.227 16.4326 16.5089 16.8101 16.3109 16.8242 16.6717 19.57 16.7411 16.1558 16.5123 16.2717 16.5584 17.2136 17.1099 17.4051 16.4666 17.6267 16.8488 25.948 21.0026 51.2134 91.5559 58.6698 35.4894 24.2795 75.5256 18.26 20.2918 93.1158 78.0488 42.1257 16.9068 88.1259 16.8488 20.6024 54.9555 16.6717 25.9043 33.2359 33.6336 16.227 90.6709 47.4351 31.1846 27.6827 72.7189 19.2277 25.8857 23.5573 44.6449 40.6871 16.6189 47.5471 50.9751 38.3626 30.2354 31.601898 16.4375 33.2344 42.4332 52.623 36.9662 33.7262 90.2763 28.3692 17.2136 17.2813 79.2792 25.9171 30.1283 86.2934 25.5933 39.588 69.0589 19.4063 92.747 25.0319 24.764 77.8984 67.8512 34.4037 22.6473 19.4983 22.1655 17.461 52.0486 37.0084 28.8237 59.8235 16.7411 76.7856 18.4915 51.4571 60.7801 16.5089 20.172 19.6617 50.7726 26.1727 31.5326 66.493 18.9219 19.4367 35.9886 31.6697 72.5314 62.8508 47.3508 88.9369 32.3325 24.3328 80.0355 18.2034 16.3109 35.6853 20.467 29.8662 39.3792 29.5155 59.4755 19.57 30.112 21.6101 16.4326 55.577 66.8748 50.5248 81.1471 32.4758 42.0079 32.3918 54.6723 16.8242 46.1417 57.4464 33.0759 46.6083 17.6267 16.5584 35.2281 54.8093 86.0944 26.2836 16.2717 24.8008 28.5689 29.9498 16.3666 27.6965 72.6849 59.3218 33.0858 50.901 29.3063 63.3199 33.5042 59.7517 21.5799 23.6275 16.4666 27.1715 35.5722 50.0601 17.1099 31.964302 82.1048 30.9791 36.0074 45.5704 65.3173 33.6967 27.78 35.4097 56.1868 16.3564 43.2901 36.2713 51.5257 23.8314 29.3608 40.0945 23.9228 16.6675 19.9528 21.1908 24.9347 17.4262 46.3082 31.4463 33.566 67.1169 32.2242 64.2006 24.4436 48.097 59.4509 77.9882 17.5187 18.8127 21.2498 47.6879 56.9311 21.6846 41.1368 90.8541 26.9264 25.1747 22.5194 50.2456 67.2904 43.1791 56.2023 67.3948 66.3245 73.1901 80.9391 85.124 39.5158 38.4276 62.4934 30.3438 33.9677 35.0654 33.6601 47.44 84.9301 20.4411 78.3685 75.3545 76.1299 73.7883 73.7883 75.3545 76.1299 78.3685 47.0706 48.6839 57.7317 47.0706 48.6839 57.7317 27.1957 34.3373 27.1957 34.3373 39.1897 44.3693 39.1897 44.3693 78.1836 78.1836 91.9974 91.9974 32.8899 32.8899 74.4538 74.4538 40.8885 40.8885 53.2025 52.3911 88.0719 52.3911 53.2025 88.0719 84.5782 84.5782 68.8136 68.8136 91.3754 91.3754 60.6091 69.4661 60.6091 69.4661 
PEPMASS=559.2875
CHARGE=2+
55.0553 180.0
61.0409 569.0
69.0710 215.0
70.0659 3200.0
72.0816 2674.0
74.0608 669.0
80.0130 835.0
84.0458 250.0
84.0813 323.0
86.0973 4068.0
87.0449 272.0
87.0990 237.0
89.0607 915.0
98.9875 255.0
102.0550 336.0
110.0283 2752.0
110.0716 4585.0
110.5302 220.0
111.0750 229.0
115.0866 471.0
116.0729 189.0
120.0821 2425.0
121.0685 198.0
121.0850 231.0
122.0818 979.0
211.1213 1505.0
159.0203 1342.0
341.2383 1285.0
684.3552 1253.0
454.2445 1251.0
285.1374 1193.0
196.9940 1166.0
601.3161 1163.0
136.0767 1122.0
144.9934 1056.0
680.3375 1037.0
543.2767 1015.0
322.8827 1011.0
133.0873 1007.0
674.3670 988.0
122.0818 979.0
169.1363 956.0
381.2453 934.0
89.0607 915.0
214.9197 915.0
307.0087 877.0
257.1403 844.0
80.0130 835.0
703.3657 831.0
382.9149 827.0
274.9521 812.0
228.1471 791.0
561.2634 782.0
159.0791 757.0
232.9295 735.0
205.0257 709.0
334.1915 674.0
313.1926 670.0
74.0608 669.0
321.2116 664.0
378.1794 654.0
316.1171 636.0
237.1368 596.0
264.9246 590.0
61.0409 569.0
270.1073 547.0
358.9034 537.0
383.1670 534.0
283.1466 525.0
265.1255 524.0
662.3077 524.0
232.1405 493.0
115.0866 471.0
143.0834 470.0
641.2921 464.0
227.1041 452.0
255.1104 442.0
660.3283 441.0
215.1172 431.0
304.8986 417.0
444.3061 404.0
166.0639 398.0
685.3540 398.0
214.1168 388.0
197.1286 387.0
544.3645 377.0
439.1960 373.0
347.9772 358.0
199.1072 355.0
187.0746 354.0
134.9653 353.0
129.1032 351.0
396.2113 350.0
285.1943 343.0
258.9730 342.0
484.2080 338.0
102.0550 336.0
602.3124 332.0
158.0958 328.0
390.2227 327.0
457.2083 326.0
84.0813 323.0
176.1235 313.0
172.1151 312.0
324.2319 312.0
209.1419 311.0
243.1531 308.0
443.2820 306.0
177.1141 305.0
178.0542 305.0
290.1499 305.0
256.0402 301.0
525.2481 293.0
438.2262 292.0
369.1806 290.0
675.3653 290.0
249.1619 284.0
198.9931 283.0
573.3213 283.0
147.1139 277.0
87.0449 272.0
283.9214 269.0
163.0030 267.0
259.0964 265.0
306.8978 262.0
255.0296 261.0
448.2025 257.0
98.9875 255.0
220.1095 255.0
179.0222 254.0
84.0458 250.0
412.2038 249.0
481.2593 247.0
344.1984 246.0
561.3271 245.0
282.9347 244.0
318.1794 243.0
273.0129 240.0
382.2515 238.0
87.0990 237.0
361.1916 236.0
455.2435 234.0
273.1220 233.0
374.1762 232.0
121.0850 231.0
111.0750 229.0
301.9347 228.0
430.1875 225.0
644.3288 225.0
250.9386 223.0
110.5302 220.0
213.0098 220.0
249.9926 217.0
305.9562 217.0
69.0710 215.0
286.9316 210.0
562.2796 210.0
479.1775 208.0
276.8974 207.0
342.2439 204.0
223.1595 203.0
483.1906 202.0
258.8913 201.0
475.2177 201.0
152.9752 200.0
191.1203 200.0
121.0685 198.0
231.1047 194.0
273.1595 194.0
384.2005 194.0
116.0729 189.0
246.9067 189.0
632.3240 189.0
228.8983 188.0
286.1430 188.0
341.1810 185.0
441.2072 185.0
308.0139 183.0
222.9018 182.0
293.1181 181.0
426.2473 181.0
55.0553 180.0
319.1909 177.0
344.8799 176.0
379.1685 176.0
187.1465 175.0
257.0327 172.0
321.1161 172.0
201.1228 171.0
130.0679 168.0
169.0988 168.0
177.0300 168.0
195.9978 167.0
141.0678 166.0
333.1936 166.0
266.9189 165.0
258.1475 162.0
504.2462 162.0
284.9286 161.0
439.2997 161.0
197.9942 160.0
305.2530 159.0
432.2622 159.0
642.3100 158.0
141.1018 157.0
144.1226 157.0
185.1009 153.0
339.2226 150.0
415.2441 150.0
181.0204 149.0
343.9554 149.0
701.3663 149.0
204.8878 148.0
212.1194 146.0
136.9607 142.0
380.1307 141.0
505.2294 141.0
341.0344 139.0
431.1886 136.0
440.2028 136.0
507.2398 136.0
563.2648 136.0
630.3440 136.0
619.3052 135.0
300.1530 134.0
318.9300 134.0
501.2387 134.0
287.9437 132.0
262.8764 131.0
303.9261 131.0
251.1531 130.0
359.2013 128.0
645.3310 128.0
155.1192 127.0
545.3507 126.0
559.2848 126.0
564.2673 126.0
598.2903 126.0
598.2903 126.0
559.2848 126.0
564.2673 126.0
545.3507 126.0
322.2165 125.0
377.1726 125.0
397.2646 125.0
322.2165 125.0
377.1726 125.0
397.2646 125.0
240.9119 124.0
272.9060 124.0
240.9119 124.0
272.9060 124.0
317.9309 123.0
365.9584 123.0
317.9309 123.0
365.9584 123.0
562.3181 122.0
562.3181 122.0
704.3441 121.0
704.3441 121.0
254.8947 120.0
254.8947 120.0
531.3026 118.0
531.3026 118.0
314.1972 117.0
314.1972 117.0
368.1658 114.0
422.1557 114.0
661.3362 114.0
422.1557 114.0
368.1658 114.0
661.3362 114.0
640.3109 112.0
640.3109 112.0
523.2299 110.0
523.2299 110.0
663.2968 109.0
663.2968 109.0
437.2082 105.0
522.2434 105.0
437.2082 105.0
522.2434 105.0
END IONS
BEGIN IONS
TITLE=Spectrum 1GLYPHOS_VFADYEEYVK_1262_01.csv DRIFT_TIME=16.2629 16.21 16.3187 16.5623 16.5937 16.8172 16.2205 16.8222 16.6716 16.4757 16.4543 17.1126 17.2896 16.6607 17.1184 16.7704 16.8844 17.224 17.2271 17.0742 16.9072 18.1549 18.6378 20.1281 20.4257 17.6954 17.3055 18.1267 17.6775 20.2861 18.2223 20.4848 19.9883 19.2241 18.2215 19.6327 18.392 19.2469 20.0448 20.2512 18.477 18.8855 21.9444 22.9577 24.6752 23.6419 24.2889 27.2433 26.7099 27.0356 23.9635 24.9258 21.9303 29.8098 26.0374 25.8991 27.2488 27.3931 30.4469 30.7397 29.1861 25.8171 30.0735 33.1966 30.1452 38.7358 29.6085 39.7954 28.0148 31.9011 29.8271 29.172 35.114 30.706 29.9057 32.9425 28.0657 34.9648 32.5146 32.8039 36.8518 32.7752 34.3785 30.4956 35.0024 34.7274 41.0004 36.1275 27.3905 37.2394 29.0185 33.2588 32.0436 45.1272 44.3789 36.6307 37.7679 34.4746 33.1169 33.4414 33.6499 45.4193 38.1404 38.2671 50.2517 45.6991 41.7054 40.7386 38.6728 44.4469 40.3859 36.2029 36.2803 40.3725 36.884 43.3182 44.2665 43.2268 40.5546 40.8261 37.219 45.6032 51.0357 42.3209 43.9968 44.8256 45.4439 47.4848 37.0724 43.2846 55.1787 43.0132 49.0811 48.7942 46.4449 46.0681 45.7313 41.9266 57.8529 57.6372 56.093 51.9478 55.2764 41.5988 46.8777 47.2721 45.6618 47.837 57.0449 47.8903 56.5655 56.1809 48.1405 53.0825 60.4325 45.0821 51.7245 60.2433 45.9257 52.4961 54.065 59.9311 61.1068 54.163 72.9053 68.712 74.4698 77.6746 88.3206 88.5933 85.5644 86.1292 88.6055 95.0722 96.2548 96.9902 99.4895 102.0836 111.1731 121.9109 124.8279 125.2186 121.9306 129.6158 133.7429 132.209 139.7953 136.9542 135.9723 
PEPMASS=631.803
CHARGE=2+
55.0547 201.0
69.0689 287.0
70.0642 371.0
72.0799 2296.0
84.0798 315.0
86.0945 5181.0
87.0431 341.0
87.0981 403.0
89.0587 916.0
104.0710 211.0
110.0703 551.0
116.0697 142.0
120.0786 4201.0
121.0632 376.0
121.0817 429.0
122.0797 2516.0
123.0815 185.0
129.1009 475.0
130.0847 265.0
132.0801 183.0
133.0840 1068.0
136.0746 905.0
137.0793 125.0
143.1156 168.0
144.9882 226.0
145.0950 1216.0
147.0793 189.0
147.1104 433.0
149.0963 135.0
157.1316 225.0
158.0888 266.0
159.0166 372.0
159.0897 693.0
160.0905 141.0
165.0896 313.0
169.1314 122.0
170.0576 308.0
173.0879 483.0
175.1159 1570.0
176.1194 155.0
177.1103 283.0
178.0522 467.0
179.0226 184.0
191.1155 262.0
194.9934 484.0
196.9901 222.0
197.1256 169.0
199.1776 2488.0
200.1386 138.0
200.1799 367.0
205.0209 125.0
206.0272 168.0
210.0233 153.0
212.9760 181.0
214.9131 232.0
215.1377 126.0
219.1454 2182.0
220.1494 316.0
227.1713 648.0
228.1734 147.0
230.9878 306.0
232.9279 268.0
235.1384 120.0
246.1788 413.0
247.1406 521.0
247.2032 513.0
248.1411 133.0
248.2064 116.0
249.9840 443.0
251.0992 286.0
252.1052 261.0
253.0905 184.0
255.1432 129.0
256.0368 237.0
259.0911 257.0
265.1155 168.0
268.0003 112.0
268.1614 267.0
271.0996 450.0
272.1216 262.0
272.1707 322.0
273.0080 1888.0
274.0154 384.0
274.9435 295.0
279.9524 107.0
281.1021 130.0
284.1902 132.0
286.1333 552.0
286.9304 232.0
287.1338 176.0
287.9332 118.0
289.9782 311.0
291.0278 173.0
291.2280 769.0
292.2399 111.0
293.1085 335.0
300.1686 112.0
300.9109 109.0
307.0047 1705.0
308.0040 257.0
309.0031 170.0
310.2121 427.0
317.0742 464.0
319.0741 391.0
323.2196 170.0
328.2208 369.0
330.1316 133.0
332.9048 374.0
334.0450 119.0
334.1362 228.0
334.8974 109.0
336.7912 118.0
338.9823 186.0
342.9310 249.0
344.9548 190.0
347.1627 296.0
347.9387 120.0
350.1230 182.0
350.9117 349.0
352.9108 151.0
354.8046 321.0
357.1705 170.0
357.2060 142.0
357.9726 337.0
365.9514 151.0
367.1331 207.0
368.1177 156.0
371.1811 137.0
372.8146 249.0
375.9828 159.0
381.2439 282.0
383.0021 250.0
385.1436 462.0
386.1463 150.0
392.9353 199.0
393.9469 256.0
394.9349 155.0
396.8280 503.0
397.2550 393.0
398.2527 137.0
399.2517 244.0
408.1293 248.0
409.2388 601.0
411.8455 183.0
411.9574 175.0
412.9400 251.0
413.9421 109.0
416.9062 146.0
417.2362 348.0
418.9029 214.0
422.1504 347.0
423.1507 132.0
430.9334 269.0
433.0375 182.0
446.2259 199.0
453.8671 164.0
454.9499 134.0
458.2162 244.0
471.8742 183.0
476.9504 272.0
478.9478 194.0
479.1684 273.0
484.2096 140.0
496.9395 130.0
511.2530 280.0
537.1695 266.0
538.2784 304.0
608.2118 443.0
631.3308 720.0
632.3305 363.0
642.3462 2112.0
643.3509 849.0
667.3264 189.0
737.3094 159.0
755.3132 397.0
756.3247 149.0
757.3673 291.0
771.2666 184.0
830.3750 286.0
945.4014 345.0
946.4198 212.0
1008.4775 331.0
1009.4710 209.0
1016.4411 474.0
1016.4420 547.0
1017.4485 344.0
1040.4900 205.0
1041.4901 152.0
1107.5373 228.0
END IONS
BEGIN IONS
TITLE=Spectrum 1GLYPHOS_VLYPNDNFFEGK_1442_01.csv DRIFT_TIME=16.517 16.4467 16.7189 16.6034 16.456 16.3708 16.9246 16.1985 16.889 16.5893 16.2597 16.7303 16.6385 17.2839 16.8048 17.2406 17.0232 18.2074 18.295 16.2439 18.736 20.2768 17.1905 18.2258 20.6283 20.6754 18.1522 20.043 21.6106 19.9562 19.0112 20.9727 24.8008 21.491 24.6678 24.362 24.397 28.1965 27.981 24.6199 25.4181 23.3242 26.0857 24.5327 27.1635 27.0847 25.721 27.8154 28.4905 31.107903 31.228203 28.3173 25.951 28.4565 28.142 30.0402 28.5728 32.7882 31.703499 39.2138 33.4643 29.9245 30.2475 29.5271 30.1432 29.2888 30.7397 31.8838 33.1724 34.6711 32.7032 40.8226 31.064598 36.7121 34.2209 38.4414 27.6018 40.4223 44.8887 46.0236 44.8383 45.1224 37.382 41.0317 45.7708 33.6144 39.0093 41.8985 44.6429 39.2706 44.6362 41.2312 41.0468 47.0481 46.1189 42.375 41.7794 38.3322 32.2878 45.2504 45.0958 44.8653 47.2111 49.5669 52.636 49.0159 52.198 46.3089 51.9606 56.5496 55.7664 58.9602 51.1271 53.1102 61.8934 62.0854 54.0586 53.8561 65.054 64.2997 62.8542 63.413498 66.9082 66.7389 66.6919 63.2677 61.8341 72.0974 71.0269 71.159 79.2737 92.882 74.8425 67.8665 75.5686 75.7702 70.268 75.7094 73.4014 74.7916 84.1279 82.7552 103.1074 89.3904 89.4168 85.6422 86.2322 93.9289 92.5663 110.8605 99.2001 89.6016 103.5705 96.466 92.9881 92.3067 97.0603 91.3464 98.0482 97.7112 101.3451 93.6231 102.7431 94.556 95.4939 100.644 99.3872 97.529 97.885 107.0686 107.112 107.9699 112.1984 112.2582 109.4385 109.5702 110.416 110.4525 117.3956 128.9688 127.7632 128.0497 127.3927 124.5667 123.8268 124.2499 132.052 135.6913 135.5705 135.9908 135.6434 152.9671 146.2405 148.0171 148.2862 163.2231 162.4429 158.7141 164.5572 153.1241 156.7772 151.9269 155.0741 173.7619 
PEPMASS=721.8535
CHARGE=2+
55.0564 208.0
70.0675 1187.0
72.0830 3701.0
73.0872 178.0
84.0458 209.0
84.0834 230.0
86.0978 8133.0
87.0458 309.0
87.1017 619.0
89.0611 627.0
110.0303 671.0
110.0751 460.0
119.0499 152.0
120.0836 471.0
122.0845 260.0
129.1077 547.0
133.0899 710.0
136.0792 8824.0
137.0833 868.0
140.0465 177.0
143.1219 695.0
144.9975 335.0
147.0475 153.0
147.1169 374.0
157.1397 244.0
159.0251 221.0
165.0950 183.0
171.1163 615.0
173.1319 165.0
175.1245 1619.0
177.1166 307.0
184.1127 153.0
185.1697 5896.0
186.1293 194.0
186.1751 868.0
195.0025 1228.0
196.9994 405.0
199.1859 4383.0
200.1906 719.0
201.1305 488.0
204.1402 1879.0
205.0295 841.0
205.1408 161.0
212.1098 355.0
213.1649 4714.0
214.1667 741.0
214.9267 145.0
223.1136 2668.0
224.1152 390.0
227.1817 2102.0
228.1830 330.0
229.1304 139.0
232.9341 126.0
233.1341 319.0
234.1366 153.0
235.1469 429.0
239.1227 134.0
239.1812 130.0
242.1579 442.0
247.2092 354.0
249.1690 535.0
251.1083 690.0
252.1183 126.0
255.0378 340.0
255.1161 189.0
257.0310 142.0
261.1331 234.0
262.1263 158.0
263.1438 149.0
271.1805 135.0
273.0167 117.0
273.2287 108.0
274.9589 530.0
277.1636 135.0
283.1488 171.0
284.2025 187.0
286.9450 137.0
288.2115 332.0
291.2391 672.0
292.2413 151.0
296.2045 1048.0
297.2101 224.0
301.1644 104.0
301.2356 119.0
303.2189 119.0
307.0203 194.0
310.1879 111.0
313.1960 193.0
314.2170 1722.0
315.1768 431.0
315.2215 323.0
327.1388 459.0
328.1380 147.0
331.2108 500.0
332.2179 129.0
333.1866 802.0
334.1925 130.0
334.9912 110.0
340.1802 120.0
346.1829 323.0
350.1808 474.0
351.1821 104.0
364.1955 288.0
369.2235 117.0
371.2536 151.0
375.1710 118.0
376.2356 788.0
377.1580 130.0
377.2377 173.0
412.2646 195.0
414.2426 138.0
418.2510 139.0
424.1668 155.0
431.1550 180.0
435.2807 473.0
436.2754 134.0
441.1880 443.0
442.1839 160.0
449.2882 249.0
459.2759 422.0
460.2744 142.0
463.2671 286.0
477.2754 201.0
480.2603 885.0
481.2616 270.0
490.2217 192.0
491.1990 202.0
506.3259 672.0
507.3269 254.0
543.2385 176.0
548.3662 122.0
551.3462 236.0
553.2890 129.0
554.2037 107.0
560.2590 273.0
561.2561 136.0
571.2319 243.0
581.2854 171.0
588.2569 573.0
589.2521 204.0
597.3496 774.0
598.3501 229.0
607.4061 353.0
627.3306 538.0
628.3329 178.0
635.3685 1049.0
636.3654 382.0
645.3542 150.0
657.4095 128.0
663.4727 188.0
680.4138 129.0
692.3239 150.0
705.5115 130.0
707.3279 164.0
708.3304 126.0
709.3349 172.0
710.4505 118.0
718.2978 197.0
721.4171 295.0
722.4032 675.0
723.4175 517.0
724.3904 213.0
724.4105 250.0
735.3328 324.0
736.3255 189.0
741.3733 535.0
742.3855 262.0
750.4002 944.0
751.4022 461.0
781.4914 159.0
847.3536 262.0
848.3493 135.0
856.4091 657.0
857.4135 369.0
864.3718 484.0
865.4231 3140.0
866.4310 1562.0
867.4354 501.0
939.3958 111.0
964.4973 1946.0
965.5046 1218.0
966.4937 394.0
967.5150 146.0
970.4468 1242.0
971.4494 833.0
972.4421 235.0
1050.4729 306.0
1067.5020 3906.0
1068.5045 3010.0
1069.5045 1221.0
1070.5117 334.0
1078.6555 467.0
1127.5655 859.0
1128.5709 688.0
1129.5621 206.0
1214.5980 2397.0
1215.6017 1897.0
1216.6043 737.0
1216.6099 615.0
1230.5707 770.0
1231.5707 587.0
1231.5857 509.0
1232.5863 258.0
1327.6925 217.0
END IONS
BEGIN IONS
TITLE=Spectrum 1GLYPHOS_WPVHLLETLLPR_1472_01.csv DRIFT_TIME=16.3626 16.5805 16.2946 16.5288 16.8719 16.274 16.5145 16.3766 17.4747 16.7882 17.4297 16.8016 16.7544 18.2484 18.1751 18.9893 18.6579 18.4096 20.2787 20.3165 19.2795 18.419 20.5279 18.8374 19.9625 21.8589 24.5795 24.7908 24.493 25.322 27.9425 25.7208 23.4636 27.1649 25.9158 30.1833 28.3178 31.7612 30.7129 28.8305 34.7458 33.73 31.134201 31.8679 31.6039 34.0678 36.3727 32.4227 36.5582 32.3743 31.874298 33.5055 45.0536 33.1835 44.2175 40.957 40.9235 44.5842 44.9728 47.9642 46.9688 45.6747 51.7898 45.1563 44.3509 50.2179 50.2874 54.6707 50.2485 49.5608 53.5418 65.1842 65.5437 52.3143 66.7924 75.2154 67.6733 66.0467 71.1379 70.3208 70.7346 63.2947 84.1504 88.8844 83.1427 84.38 83.908 97.6572 86.2119 85.1375 103.3685 98.4355 101.7508 103.8737 98.1241 98.1245 95.6292 98.0718 109.2143 118.1415 118.4277 120.0827 138.8143 139.9084 136.9358 155.3988 157.5536 157.7682 171.9114 166.2404 172.4403 
PEPMASS=737.4355
CHARGE=2+
70.0669 932.0
72.0833 755.0
84.0474 159.0
84.0843 329.0
86.0984 1625.0
110.0298 223.0
110.0747 1934.0
111.0776 204.0
120.0840 312.0
122.0856 944.0
129.1060 340.0
130.0696 898.0
133.0887 161.0
136.0796 984.0
137.0839 124.0
143.1221 145.0
147.1217 135.0
158.1002 190.0
159.0970 1501.0
160.1013 225.0
166.0660 171.0
167.0970 130.0
169.1396 347.0
170.0655 471.0
175.1246 1668.0
184.1229 135.0
185.1701 646.0
195.0028 250.0
197.0017 127.0
197.1304 111.0
199.1862 314.0
204.1415 194.0
205.0293 173.0
213.1655 378.0
214.9257 135.0
223.1611 627.0
224.1235 269.0
227.1792 154.0
237.1403 377.0
239.1265 484.0
251.1577 701.0
252.1575 132.0
255.1522 998.0
256.1532 802.0
257.1546 158.0
265.1349 258.0
272.1786 998.0
273.0190 110.0
273.1857 119.0
284.1457 604.0
285.1511 157.0
289.9964 103.0
296.2032 108.0
307.0197 551.0
314.2181 157.0
315.1808 113.0
327.1414 135.0
334.1983 839.0
335.2000 171.0
338.1970 255.0
350.2289 202.0
356.2009 107.0
364.2406 123.0
365.2098 426.0
366.2072 170.0
368.2427 125.0
372.1785 163.0
378.2250 327.0
383.2207 873.0
384.2210 232.0
385.2700 308.0
447.2801 268.0
475.2525 256.0
476.9780 124.0
493.2949 129.0
498.3548 202.0
503.2534 309.0
504.2568 154.0
506.3225 218.0
520.2848 343.0
521.2818 201.0
572.9667 201.0
597.3631 131.0
599.4054 566.0
605.3714 135.0
617.3572 276.0
618.3682 125.0
627.3329 200.0
635.3688 389.0
636.3815 185.0
716.3607 152.0
728.4488 487.0
728.4512 500.0
729.4472 219.0
741.4087 954.0
742.4192 342.0
750.4090 257.0
762.2962 273.0
772.3757 177.0
841.5376 1920.0
842.5397 1010.0
843.5418 288.0
954.6274 1227.0
955.6311 685.0
956.6322 243.0
1091.6904 747.0
1092.6977 483.0
1093.6817 246.0
1190.7653 382.0
1190.7714 366.0
1191.7720 279.0
END IONS
BEGIN IONS
TITLE=Spectrum 1GLYPHOS_YEFGIFNQK_1145_01.csv DRIFT_TIME=16.2717 16.4999 16.6565 16.1608 16.3923 16.4165 16.7624 16.8152 19.3765 16.5345 16.283 16.5467 17.0421 16.4772 17.3782 17.0222 16.9401 17.4411 17.264 16.969 22.2855 18.3206 22.1332 18.1841 19.2619 20.4067 16.9868 18.5019 16.268 18.341 18.4402 20.8084 20.6785 19.6665 20.0481 21.6348 19.1136 21.412 21.1276 21.742 22.8597 24.2139 24.1056 24.1307 24.4721 23.935 22.2065 23.4991 24.699 26.0577 26.0062 29.6288 26.0283 26.0401 28.1354 29.047 26.1249 25.8349 30.2058 28.2758 29.6128 39.3961 30.4203 27.8656 25.7156 29.9175 30.132 30.9694 28.9739 32.9007 30.5368 31.8162 28.5917 34.6195 33.5864 34.0839 31.847198 33.6438 33.5814 33.4717 32.8711 36.5729 33.5846 31.0677 33.6787 36.1032 32.4117 27.7728 33.5526 35.6194 35.2195 32.8761 45.4429 31.5346 36.7465 37.3 39.8124 39.0459 33.1013 32.7465 37.1692 42.6597 37.9514 41.8048 40.8499 41.8968 39.5951 45.8279 36.2743 40.3972 38.6001 36.7629 31.8288 43.7451 48.5288 40.3877 38.0607 40.5731 40.9716 36.7568 40.7835 45.3862 37.201 43.1213 53.1556 43.0054 46.5353 47.5901 36.4585 42.2407 50.946 50.3037 50.8239 47.0205 54.2659 47.0839 54.1129 43.2468 47.311 53.8315 47.1456 41.5986 54.2508 60.3937 57.1314 71.8258 54.715 57.8973 58.4785 60.0547 65.7603 62.939 63.890503 59.3274 56.0796 76.2918 67.905 63.8872 74.0198 69.0367 72.5056 72.596 71.6049 78.4171 78.3897 73.3472 73.9514 76.0692 73.0137 82.2587 80.1795 63.2499 79.8163 94.5932 92.9782 88.6089 94.3002 92.8755 92.6551 90.7088 98.7203 98.0465 97.0391 119.8699 121.1041 118.6517 111.651 116.4211 133.4525 135.4146 
PEPMASS=573.2875
CHARGE=2+
61.0407 296.0
70.0659 645.0
72.0829 278.0
80.0123 158.0
84.0453 316.0
84.0809 569.0
86.0969 1784.0
89.0602 342.0
98.9864 197.0
102.0552 301.0
110.0280 696.0
110.0724 374.0
115.0834 190.0
119.0501 203.0
120.0814 1904.0
121.0842 180.0
122.0815 1427.0
129.1027 575.0
130.0843 225.0
133.0852 352.0
134.9648 222.0
136.0755 8206.0
136.9625 193.0
137.0808 878.0
143.1168 277.0
144.9937 555.0
147.0444 204.0
147.1133 302.0
154.0066 200.0
157.1084 198.0
158.0938 163.0
159.0194 1122.0
163.0045 236.0
169.0949 156.0
175.1195 2499.0
177.1030 109.0
178.0552 272.0
179.0221 410.0
185.1060 185.0
186.1239 117.0
187.1441 198.0
194.9965 2149.0
195.9977 192.0
196.9940 1957.0
197.9981 134.0
198.9925 140.0
202.0885 361.0
205.0266 428.0
205.0975 146.0
211.1185 1127.0
212.1221 210.0
212.9763 159.0
214.1201 196.0
214.9169 784.0
228.1432 383.0
230.9905 288.0
231.1120 103.0
232.9289 474.0
240.1344 126.0
243.1100 215.0
247.1083 166.0
247.2091 111.0
249.1246 271.0
249.9862 191.0
250.9371 120.0
255.0277 211.0
255.1087 279.0
256.0367 275.0
257.0304 145.0
257.1605 270.0
258.0308 133.0
258.1440 741.0
258.9749 182.0
262.1211 187.0
262.8779 109.0
264.8710 139.0
264.9225 383.0
265.1181 5224.0
266.1227 883.0
267.1249 147.0
273.0123 3429.0
273.1232 106.0
274.0143 327.0
274.9538 1118.0
275.1727 654.0
279.1480 136.0
282.9332 150.0
286.9338 476.0
289.9863 329.0
290.1430 156.0
290.8962 155.0
291.0252 142.0
291.2316 115.0
292.9606 147.0
293.1124 2531.0
294.1153 487.0
304.8998 335.0
306.8953 487.0
307.0095 713.0
308.0015 194.0
308.8976 232.0
318.1785 336.0
324.9669 109.0
331.9169 206.0
332.9074 1694.0
333.9102 265.0
334.0563 129.0
334.1394 224.0
334.8451 367.0
334.9059 647.0
335.9884 233.0
338.9890 115.0
340.1680 215.0
341.0286 171.0
342.1678 229.0
342.9421 149.0
348.9770 119.0
350.9192 1742.0
351.9206 186.0
352.8576 272.0
352.9203 664.0
354.1806 129.0
354.8117 411.0
355.1639 417.0
355.2226 142.0
357.9749 181.0
359.1986 148.0
372.1897 575.0
372.8234 238.0
383.0084 141.0
383.1524 108.0
389.2171 1671.0
390.2004 342.0
392.9442 522.0
393.1687 981.0
393.9479 278.0
394.1745 229.0
394.8763 171.0
394.9470 255.0
395.1759 142.0
395.9479 108.0
396.8352 393.0
397.1300 217.0
397.2769 261.0
401.2196 239.0
415.1623 153.0
427.2091 116.0
432.2261 153.0
435.1987 190.0
447.2175 128.0
453.1865 399.0
453.2820 145.0
454.2126 197.0
454.2453 166.0
455.0218 138.0
457.1726 239.0
471.1975 146.0
487.2140 262.0
518.3139 106.0
519.2571 269.0
536.2845 1879.0
537.2846 683.0
538.2885 155.0
542.2741 252.0
544.3628 126.0
564.2658 223.0
573.2897 203.0
574.2969 123.0
575.2292 318.0
575.3376 194.0
576.3445 111.0
577.1843 281.0
577.3132 240.0
649.3652 387.0
650.3662 196.0
669.3032 401.0
679.3448 165.0
689.3601 161.0
690.3354 125.0
695.3139 279.0
706.3921 1501.0
707.3849 562.0
708.3848 220.0
853.4579 1513.0
854.4671 899.0
855.4632 259.0
883.4093 244.0
981.3992 444.0
982.4936 300.0
983.5024 272.0
END IONS
