BEGIN IONS
TITLE=Spectrum 1GLYPHOS_DFYELEPHK_1176_01.csv DRIFT_TIME=16.5173 16.4813 16.3994 16.1715 16.383 16.9007 16.0681 16.7062 19.2262 16.4919 16.1997 16.5152 17.3818 16.4906 16.8822 16.4499 17.3696 16.7661 17.2631 16.8826 22.1403 18.2772 18.1899 16.1511 20.4043 17.436 18.1876 17.5706 21.7975 18.0749 20.9337 19.8324 18.5236 19.3645 20.6753 20.1721 19.1207 19.3029 21.1165 23.0964 22.2786 21.1575 22.0649 24.1984 26.3842 24.2034 23.3266 24.2779 25.1609 24.8828 25.1911 24.3574 25.7327 26.2609 26.1007 29.1982 26.0181 28.4822 28.6825 28.9235 39.1755 39.72 28.3764 26.1972 32.2181 31.604301 29.1707 29.8494 30.84 30.8054 30.8118 32.1494 28.2522 28.4319 30.6618 30.8557 31.8624 33.6811 33.4931 33.6681 32.6931 41.8405 34.5862 31.3153 35.1259 32.0491 37.0332 35.3134 35.6341 27.3428 33.3508 21.8946 45.3826 45.5245 37.5119 39.5084 29.8627 32.8763 32.6753 22.2247 33.2515 41.3525 38.2192 38.0579 34.5692 37.7854 34.3692 38.853 22.0981 39.4769 55.4577 26.1893 43.818 49.2164 38.5242 36.7617 23.7898 33.9085 35.6987 39.3148 44.2061 26.2506 53.6274 39.8137 42.2897 28.6999 26.4684 39.0021 50.4826 27.2524 29.0538 45.0495 25.5816 35.9896 44.3466 28.3739 44.1514 43.0924 25.6214 43.263 53.9543 48.7558 30.4103 28.7066 28.6727 43.6663 50.6672 30.3761 50.7154 30.2202 47.2805 51.3859 45.957 44.708 26.5826 42.8383 29.3362 29.8459 29.0946 29.1361 28.9201 58.9586 32.63 32.4951 49.4132 55.2193 48.9678 47.6665 72.1248 57.289 66.9646 62.0645 48.0847 61.9594 42.6975 60.3483 62.0168 27.597 33.4538 48.1851 31.391197 21.3987 47.4702 29.385 33.7839 33.8134 34.0295 53.831 47.0433 32.5026 32.9435 47.7427 33.8697 75.6739 35.003 34.6562 34.2554 33.6832 36.3474 36.1184 35.6709 35.3204 35.1687 35.0238 37.5654 35.1789 35.1382 35.723 27.7611 33.6326 33.7311 36.0394 31.226501 37.1416 36.9453 36.8326 56.7186 36.54 37.3333 36.6004 36.0394 37.2642 35.2551 38.4599 36.3232 36.4934 36.5685 36.593 38.8726 38.2779 38.6199 38.2485 36.1235 26.6156 26.2211 38.2932 38.1439 38.1306 37.8068 36.4054 78.2328 36.7168 36.6996 36.6234 36.5745 48.3819 29.316 26.8131 25.9716 25.9804 36.7049 36.4591 34.7247 34.4305 36.5122 37.3137 39.5096 64.658 38.9764 64.0108 38.7546 41.8222 37.026 39.4885 37.7388 37.1637 40.3035 39.6864 40.5178 40.4002 40.6315 40.3929 39.7688 39.4055 39.5398 39.3215 39.3943 32.5369 31.767601 40.3483 66.1626 40.2056 39.929 65.3517 40.311 41.7248 41.375 41.8158 43.5233 43.5084 40.9294 30.1415 41.4011 29.2666 41.2871 41.3516 41.7636 42.8514 42.8069 42.7642 42.7552 30.5081 31.1708 42.6866 44.8635 42.3704 42.6304 41.7883 48.5607 49.3352 49.3543 31.946098 32.4414 32.9011 31.990402 40.9915 45.9945 45.2711 46.3124 34.0546 33.8061 70.9007 39.8601 39.8157 40.7018 41.7913 42.332 42.3236 38.3152 36.6845 37.1606 37.2157 37.0585 41.035 43.5304 44.0738 44.0697 34.3745 34.169 33.9658 35.8847 38.3558 40.9997 37.8733 83.3809 46.682 35.2073 46.1698 35.9699 45.9662 35.8114 45.2276 37.3112 37.994 37.4605 35.8781 36.4969 36.3225 36.44 44.2715 44.3399 43.9379 46.9525 47.1384 47.0732 47.3486 46.6716 48.1931 36.9023 37.8643 37.8256 37.7221 45.883 44.7904 76.8944 47.4509 49.8749 80.5956 49.8999 49.9243 37.4571 81.2534 37.6042 49.5768 37.6612 50.3518 37.3877 37.1761 81.788 84.3265 58.8951 59.2556 60.7383 60.2724 65.1923 60.8595 102.2268 103.0768 97.7894 69.5192 70.5127 106.7527 124.1169 125.4693 129.5659 135.2102 
PEPMASS=589.283
CHARGE=2+
61.0411 241.0
70.0655 463.0
72.0815 205.0
80.0125 373.0
84.0796 999.0
86.0966 630.0
87.0453 327.0
89.0591 1321.0
98.9866 176.0
104.0705 294.0
110.0267 1671.0
110.0704 475.0
120.0802 1330.0
121.0639 715.0
122.0811 2757.0
123.0840 183.0
129.1021 441.0
130.0640 229.0
130.0863 215.0
133.0856 1582.0
134.9638 303.0
136.0749 4730.0
137.0792 475.0
140.0444 146.0
144.9927 803.0
147.0772 277.0
147.1133 383.0
149.0943 149.0
152.9731 211.0
156.0779 141.0
159.0189 1333.0
163.0028 195.0
165.0895 606.0
166.0559 277.0
175.0837 365.0
175.1195 885.0
177.1134 394.0
178.0531 332.0
179.0187 208.0
187.1427 124.0
190.0845 194.0
191.1021 144.0
193.1210 119.0
194.9944 2660.0
196.0037 230.0
196.9915 682.0
205.0224 753.0
206.0354 220.0
207.1246 394.0
209.1177 194.0
211.1198 203.0
213.0034 185.0
214.9167 689.0
215.1379 160.0
217.0974 212.0
230.9907 189.0
232.9291 626.0
235.1058 7083.0
236.1101 1112.0
237.1088 125.0
247.2052 835.0
248.2119 134.0
249.9841 331.0
250.9375 136.0
253.1301 352.0
253.9640 166.0
255.0268 219.0
255.1068 321.0
255.9574 115.0
256.0333 546.0
258.0340 210.0
258.1423 138.0
258.9729 131.0
261.0272 121.0
263.1031 677.0
264.1045 157.0
264.9194 530.0
265.1168 665.0
266.1629 307.0
272.1358 115.0
273.0115 873.0
273.2211 115.0
274.0193 249.0
274.9474 729.0
282.1381 148.0
282.9264 234.0
283.1372 282.0
284.1696 1186.0
285.1705 179.0
286.9329 337.0
289.9835 205.0
290.6587 189.0
291.2306 1472.0
292.2326 268.0
293.1114 845.0
304.8945 122.0
305.9524 162.0
307.0082 1168.0
308.0072 152.0
308.6429 185.0
309.0016 150.0
312.1462 294.0
316.9351 229.0
317.0828 140.0
318.9207 111.0
319.0741 169.0
321.0483 191.0
324.9566 135.0
325.6162 144.0
334.9496 132.0
335.2520 135.0
340.1407 138.0
341.0322 108.0
342.1674 120.0
342.9379 255.0
344.8773 147.0
346.6222 122.0
347.9721 148.0
348.8214 152.0
348.9607 113.0
349.8957 238.0
352.1380 231.0
353.0832 152.0
355.0661 232.0
357.9673 123.0
359.1457 205.0
359.6411 194.0
360.9454 123.0
363.2101 348.0
363.6378 119.0
364.1499 132.0
364.1621 190.0
365.1216 142.0
366.8357 284.0
366.9063 144.0
367.6873 136.0
367.9075 474.0
368.9015 269.0
369.1284 130.0
369.9096 167.0
371.0962 197.0
372.1779 119.0
372.6602 121.0
373.1474 137.0
373.6408 248.0
375.9740 118.0
381.2209 3855.0
382.1509 935.0
382.2244 863.0
382.6513 405.0
382.9121 135.0
383.2343 110.0
384.9134 134.0
385.9195 146.0
386.6336 118.0
386.9080 415.0
397.6414 159.0
398.1333 110.0
403.6305 705.0
404.1323 427.0
404.6325 142.0
406.2030 116.0
406.6638 345.0
407.1579 206.0
408.9264 161.0
409.1625 238.0
409.9295 111.0
410.9225 529.0
411.1595 265.0
411.1633 183.0
411.1644 299.0
411.2915 358.0
411.9340 126.0
412.2674 391.0
412.8574 113.0
413.1135 213.0
413.2776 107.0
413.5707 153.0
419.6632 173.0
423.0776 539.0
423.6629 153.0
423.7830 119.0
424.0772 109.0
424.0895 193.0
424.1771 177.0
424.6731 121.0
425.1699 108.0
426.1610 294.0
426.9303 258.0
427.6566 329.0
428.6655 114.0
428.9329 453.0
429.1637 198.0
429.1718 321.0
430.6926 140.0
432.6580 795.0
433.1608 440.0
433.6529 152.0
436.6824 140.0
437.1929 378.0
437.6840 1036.0
438.1826 533.0
438.6795 169.0
439.2165 169.0
440.2143 119.0
441.1722 457.0
441.6724 233.0
442.1757 135.0
442.8720 172.0
443.1572 387.0
443.6642 224.0
445.1912 133.0
445.6067 121.0
446.1960 1782.0
446.6992 1056.0
447.1944 318.0
447.2590 309.0
447.6951 124.0
450.6818 118.0
451.1892 198.0
451.6790 140.0
452.1932 145.0
453.1759 123.0
454.1964 446.0
454.6731 906.0
455.1694 1200.0
455.6633 689.0
456.1621 282.0
458.2240 413.0
458.7226 225.0
460.1907 446.0
460.6913 170.0
461.1694 124.0
463.1774 140.0
463.5111 143.0
463.6807 636.0
464.1737 1262.0
464.6775 722.0
465.1845 232.0
466.1781 145.0
471.1875 239.0
472.1766 119.0
473.1677 891.0
473.6691 575.0
474.1713 169.0
474.8360 118.0
475.2106 135.0
475.8326 115.0
476.5218 294.0
476.8555 236.0
479.1696 162.0
481.6845 124.0
485.1525 580.0
485.6499 254.0
487.6774 309.0
488.1803 156.0
488.6892 187.0
492.2532 424.0
493.2060 195.0
493.2551 192.0
493.7050 179.0
494.7488 112.0
496.6794 126.0
497.1825 118.0
497.6800 377.0
498.1726 283.0
501.7162 254.0
502.2061 307.0
502.7083 187.0
503.2655 186.0
503.7709 115.0
505.2003 1027.0
505.6940 2044.0
506.1989 1477.0
506.7008 572.0
507.1966 193.0
507.6875 121.0
508.8481 152.0
509.1822 141.0
510.1879 156.0
510.2648 377.0
510.7074 462.0
511.1841 379.0
511.2600 137.0
511.6830 235.0
513.7212 762.0
514.2234 471.0
514.7273 197.0
516.2443 111.0
516.7475 193.0
519.1961 487.0
519.5022 233.0
519.6932 1001.0
519.8414 205.0
520.1932 536.0
520.7002 209.0
527.7120 132.0
528.2002 6252.0
528.7043 3958.0
529.2045 1571.0
529.7019 523.0
529.8630 133.0
530.2009 102.0
530.2013 273.0
531.7614 111.0
536.1849 125.0
539.7041 164.0
540.2146 123.0
542.7616 122.0
546.2531 402.0
546.7545 120.0
548.2128 167.0
548.5541 146.0
548.8908 142.0
549.2237 146.0
550.7091 128.0
552.2412 169.0
552.7379 166.0
553.2490 119.0
554.5723 195.0
554.9040 255.0
555.2115 127.0
556.2506 177.0
556.5938 229.0
556.9273 165.0
559.2053 280.0
559.7146 325.0
560.2039 142.0
561.9288 174.0
562.2603 179.0
562.9434 310.0
563.2793 388.0
563.6194 208.0
565.2040 156.0
565.7152 288.0
566.2174 230.0
566.7087 111.0
568.8976 351.0
569.2353 357.0
569.5696 212.0
570.5932 128.0
570.9244 154.0
571.2549 141.0
573.2681 119.0
573.3957 179.0
574.2366 237.0
574.5762 554.0
574.7265 523.0
574.9112 515.0
575.2211 414.0
575.2436 328.0
575.7233 154.0
576.2646 272.0
576.6012 308.0
576.9347 129.0
578.6091 549.0
578.9417 535.0
579.2759 281.0
579.6148 124.0
580.2342 248.0
580.7339 201.0
581.2286 122.0
583.2442 1263.0
583.7388 2460.0
584.2399 1380.0
584.7413 560.0
585.2462 196.0
585.7583 150.0
587.2751 158.0
587.6089 310.0
587.9495 240.0
588.2810 131.0
589.2440 211.0
590.2442 107.0
591.2841 1065.0
591.7652 223.0
592.2475 5386.0
592.3069 514.0
592.7505 3652.0
593.2526 1366.0
593.2829 3915.0
593.3190 152.0
593.6152 3426.0
593.7594 533.0
593.9513 2025.0
594.2489 219.0
594.2871 759.0
594.6215 228.0
623.3463 534.0
624.3562 214.0
649.8224 139.0
698.8077 120.0
728.8344 126.0
729.3351 150.0
731.3507 135.0
748.3100 137.0
752.3940 809.0
753.3918 346.0
754.3641 139.0
802.3524 112.0
802.8714 219.0
812.3207 173.0
915.4506 675.0
916.4533 370.0
916.4592 369.0
1055.4394 152.0
END IONS
BEGIN IONS
TITLE=Spectrum 1GLYPHOS_DYYFALAHTVR_1356.csv DRIFT_TIME=16.6173 16.6485 16.1042 16.4023 16.8392 16.2601 16.7323 16.6428 16.4357 16.4198 17.358 16.4866 16.9008 16.9016 17.5465 17.0869 16.893 18.1769 17.9456 20.1976 17.5164 20.3389 17.5927 18.3794 20.0447 21.1058 18.7843 21.0708 19.889 22.9253 20.6753 18.7979 20.3314 21.5406 20.2369 20.3535 20.0809 18.9046 19.3504 23.8079 22.3703 22.0382 22.4069 26.5515 24.0454 24.3413 21.9358 29.5791 25.7118 25.8065 28.0782 26.9728 29.6042 25.6232 25.8725 29.0744 27.945 29.2791 29.1385 31.1251 34.3305 29.3729 39.1074 29.0551 28.2444 31.4234 31.6917 31.375801 30.2573 21.5148 34.6932 31.904999 31.2164 30.2607 36.6658 35.0039 32.9814 34.6034 37.4537 35.5941 35.6271 33.9628 33.4214 34.1116 36.5646 36.5958 36.0707 35.3992 26.4953 29.4273 34.0079 31.1572 45.1571 33.9169 25.5576 47.0837 31.889801 38.9966 39.4285 34.1077 29.5427 33.2686 33.1905 33.1878 39.1566 39.6883 55.246 39.4199 34.9202 44.0111 31.4431 43.3152 40.9183 43.9802 38.8411 38.3966 38.283 43.8528 51.6959 46.4473 37.1702 38.3195 41.8168 33.902 39.6225 48.6108 43.8396 42.1672 39.3823 39.8216 40.1584 44.0795 51.3723 42.6132 51.3511 50.8017 50.2549 43.0212 51.8075 35.22 35.4106 44.9692 41.7904 46.5896 44.1946 55.6932 52.7597 50.354 53.4453 57.9861 46.0833 55.4789 45.8181 52.9247 40.8316 46.8371 48.9782 46.2423 47.0799 30.6048 62.2503 30.4716 29.8894 51.298 55.0139 48.0749 53.2407 37.1038 56.5369 57.1594 51.978 57.2162 47.3252 50.2435 57.1923 51.6475 58.2179 51.2196 42.1244 46.9095 42.4665 49.9807 51.6024 51.9157 45.6216 66.8059 39.8748 52.7593 38.8731 53.0241 62.6866 52.4879 54.6045 38.8436 39.8631 34.1003 66.7546 71.9508 55.0286 65.4658 65.5185 57.822 69.1914 68.8364 41.3162 41.3448 57.1345 43.6587 43.0019 72.7574 77.2971 78.1948 40.7696 43.9305 77.9519 41.2829 48.9717 49.1647 72.3615 46.8794 46.9235 71.6215 46.7339 45.7709 76.0211 77.0911 72.4259 63.7464 82.8753 77.4479 78.333 50.2666 51.0647 86.6938 87.4343 88.1024 88.9221 45.9003 93.2776 93.3443 98.0604 96.5421 54.6984 54.7267 95.2877 95.7437 98.8021 66.5854 105.0952 104.8543 103.7248 72.9366 117.4407 80.258 84.2703 131.1537 129.2669 129.2433 130.1439 141.2338 146.7432 146.2194 148.363 148.9969 155.6828 
PEPMASS=678.343
CHARGE=2+
70.0630 263.0
72.0796 1099.0
73.0268 171.0
84.0777 635.0
86.0943 2421.0
87.0438 257.0
87.0984 162.0
89.0566 804.0
104.0671 472.0
110.0681 902.0
120.0777 883.0
121.0628 268.0
122.0776 4463.0
123.0808 254.0
129.0981 2238.0
130.0849 352.0
133.0823 707.0
136.0714 6145.0
137.0751 553.0
143.1140 2469.0
144.0614 232.0
144.1185 254.0
146.0571 158.0
147.1100 704.0
155.1119 144.0
157.1295 166.0
158.0902 199.0
159.0155 237.0
159.0854 414.0
160.0224 116.0
160.0923 150.0
165.0868 201.0
169.0937 349.0
169.1298 148.0
171.1091 567.0
173.1205 128.0
175.1136 1523.0
177.1046 196.0
178.0462 343.0
180.0292 228.0
183.1067 192.0
185.1225 135.0
191.1124 178.0
197.1594 164.0
201.1211 228.0
209.1017 306.0
210.0201 133.0
212.9734 177.0
214.9117 197.0
219.1058 150.0
228.1258 181.0
229.1149 203.0
230.9849 305.0
231.0908 120.0
232.9240 167.0
233.0871 131.0
239.1086 270.0
240.1269 1092.0
241.1322 162.0
242.1435 317.0
242.1808 241.0
244.0859 155.0
247.1990 465.0
248.9954 126.0
249.9783 390.0
251.0948 5652.0
252.0985 1031.0
253.1037 133.0
255.0989 173.0
256.6233 125.0
258.1376 263.0
262.1300 298.0
263.1381 162.0
263.9754 113.0
271.1716 175.0
272.1523 157.0
273.0050 414.0
274.0132 826.0
274.1815 242.0
275.2015 547.0
276.2051 116.0
279.0905 1050.0
280.0918 188.0
281.0931 306.0
283.1376 691.0
284.1389 157.0
285.1472 160.0
286.1360 118.0
286.9296 110.0
287.9345 244.0
289.9781 188.0
291.0399 155.0
291.2240 597.0
292.0264 205.0
292.1568 224.0
296.1921 188.0
297.0682 151.0
297.1519 128.0
299.1652 434.0
300.9048 252.0
305.9408 440.0
306.9997 1624.0
308.0002 291.0
308.9980 231.0
310.1661 973.0
311.1315 406.0
311.2921 116.0
312.1427 202.0
318.9182 191.0
322.1796 144.0
322.9736 184.0
327.1255 122.0
331.9628 134.0
334.1345 117.0
335.0116 597.0
337.0137 115.0
342.9328 190.0
343.1473 197.0
343.2260 248.0
344.1774 126.0
344.9443 206.0
345.9473 151.0
347.9433 158.0
348.6997 258.0
353.0230 262.0
353.2085 142.0
357.1701 117.0
357.9663 365.0
360.9464 115.0
363.9488 220.0
364.9574 111.0
365.9446 335.0
370.2361 455.0
370.9866 152.0
371.2192 412.0
372.2283 102.0
375.2263 526.0
375.9768 310.0
382.1657 191.0
384.2151 383.0
384.7131 145.0
384.9123 119.0
386.9015 169.0
386.9867 361.0
387.9736 116.0
388.2803 396.0
393.2165 190.0
397.1302 110.0
398.2372 114.0
401.2739 160.0
401.9195 153.0
402.2360 245.0
404.9992 170.0
408.1835 171.0
409.0009 535.0
410.9239 162.0
418.8940 149.0
419.9226 245.0
421.9259 257.0
423.0892 271.0
423.2473 223.0
423.5889 129.0
424.0914 110.0
425.9483 337.0
426.1798 161.0
428.9314 183.0
433.0298 218.0
437.8213 109.0
442.1518 754.0
443.1571 203.0
443.9597 645.0
444.1932 184.0
446.9496 161.0
447.9385 127.0
448.2055 154.0
449.0068 507.0
449.2173 226.0
452.9110 167.0
457.7495 377.0
457.8794 126.0
458.2497 166.0
458.9455 125.0
459.9302 242.0
460.9526 144.0
461.8754 154.0
467.1242 249.0
471.7487 119.0
471.9517 102.0
472.2485 122.0
476.9475 235.0
477.2417 181.0
478.9500 144.0
479.9329 109.0
480.7507 159.0
481.2547 108.0
485.1319 109.0
485.1407 253.0
494.2799 249.0
494.9103 108.0
495.2563 335.0
499.2495 123.0
500.9764 150.0
512.2831 883.0
513.2881 245.0
513.7140 264.0
514.2111 139.0
515.9117 401.0
516.2270 195.0
516.7225 191.0
517.3120 236.0
525.2676 637.0
526.2729 197.0
528.2024 104.0
530.2840 127.0
543.2756 163.0
543.6639 112.0
546.2424 401.0
546.7474 238.0
555.2357 150.0
558.7981 190.0
559.2979 134.0
564.2413 125.0
565.2164 242.0
565.7142 142.0
566.2882 205.0
567.2928 130.0
570.2832 122.0
572.9304 192.0
581.3192 147.0
583.3158 1494.0
584.3186 376.0
594.3132 269.0
594.8115 202.0
618.3674 477.0
619.2498 334.0
619.3714 140.0
620.2531 144.0
677.2940 146.0
677.3235 186.0
679.4085 108.0
680.3776 588.0
681.3838 329.0
682.3305 142.0
682.6683 122.0
696.3944 1053.0
697.4039 423.0
717.4317 222.0
751.8577 124.0
767.4309 1853.0
768.4372 851.0
769.4410 273.0
816.8871 134.0
831.4735 331.0
880.4063 189.0
902.9150 133.0
914.5020 1252.0
915.4994 666.0
960.5052 650.0
961.5116 275.0
1059.5573 176.0
1077.5693 409.0
1078.5561 290.0
1116.5804 275.0
1117.5952 196.0
1187.6376 263.0
END IONS
BEGIN IONS
TITLE=Spectrum 1GLYPHOS_HLQIIYEINQR_1426_01.raw.csv DRIFT_TIME=16.6227 62.2295 30.166 34.4592 16.5446 24.3203 62.2925 153.9036 49.5184 50.8133 154.8563 53.3152 125.4416 56.6496 108.2318 55.1669 60.3072 20.0217 141.6637 55.8158 53.3549 72.1918 16.888 62.2178 49.6152 34.6111 24.1149 57.5479 55.0617 60.7141 46.748 56.6726 60.887 55.9477 125.4658 109.2353 30.263 23.5573 16.877 47.8164 142.197 58.5347 29.5035 44.6155 49.6061 37.9526 73.1751 43.6571 179.0998 49.3118 155.4863 58.6803 44.4127 84.5052 49.3504 60.9839 16.2296 31.778297 21.0186 55.4066 57.9391 55.2584 44.3258 45.9719 61.0936 45.4345 176.263 56.8179 55.8701 44.7842 38.7929 50.5535 37.5727 55.9855 51.9602 42.4192 33.4664 48.156 49.0993 43.7659 53.4087 31.113098 37.5439 36.5819 44.7842 49.1551 47.7968 53.5944 16.4501 18.3481 35.8497 60.956 37.6668 40.932 36.1639 36.09 29.1735 36.725 39.4805 37.9986 71.8412 22.5017 47.1191 85.1905 54.8937 29.2971 52.1061 55.4926 46.314 16.6491 20.6501 56.2202 43.1178 50.0449 45.8068 48.8768 36.8005 36.5859 48.6714 59.4723 41.8082 27.675 31.2905 52.3734 67.5553 149.0048 41.8023 42.0972 47.7822 17.5248 36.8719 32.667 44.5941 62.1766 34.5078 57.1177 124.6247 16.6227 45.3983 26.7661 62.2665 49.8765 43.3251 56.1173 16.4129 124.3371 18.8375 52.6091 39.4243 54.5811 58.6428 62.6365 57.261 38.603 149.6646 38.6089 42.1217 41.1282 50.8954 45.1628 39.7596 52.0005 139.4854 32.4879 58.2894 43.7671 36.7325 36.2321 46.7194 60.7455 31.154701 24.4585 34.3045 30.0029 29.7683 35.3193 38.1564 30.144 48.201 24.5333 36.0626 37.9252 68.8977 50.1269 51.866 58.1108 72.8559 44.8975 55.5359 29.8957 44.3511 17.0678 44.798 42.4067 53.5505 53.0265 38.1024 80.8458 44.0818 55.1893 31.6763 39.1527 45.1747 36.5483 35.6978 51.8097 45.2773 155.1488 36.679 108.9435 25.8699 41.6594 34.5276 48.3801 40.6045 40.3556 73.5804 56.9947 56.9402 58.7581 16.4891 32.5712 53.5752 44.6119 50.22 35.7333 30.3172 57.7953 44.3117 47.0527 35.4521 57.5368 29.3827 30.4933 47.1469 38.1687 32.848 31.143997 60.4972 21.5021 28.9947 36.1532 52.3047 49.5566 34.8092 42.9616 48.7833 47.5763 36.7499 41.657 42.8083 83.6697 58.6791 34.1442 41.0515 64.8407 36.8005 49.1266 32.3774 43.2146 35.9977 48.4051 36.7711 93.95 52.4549 37.3408 46.9556 41.2024 55.3804 55.375 40.0354 43.2273 35.7375 52.95 34.6475 35.3276 42.1119 40.8141 49.7887 42.5454 32.212 42.7184 32.7459 16.4662 22.8215 54.2151 34.815 53.061 88.1094 39.2668 45.6461 46.5431 42.8056 40.5964 45.4185 33.8995 36.8442 35.4098 40.6293 44.9267 40.7902 44.2605 44.3284 35.1578 51.158 47.6229 55.8076 21.9814 46.9551 31.0397 42.9084 42.4618 45.9541 41.8502 41.2548 38.1622 31.536102 35.0093 26.2883 67.2025 42.1551 122.1222 148.5124 38.6721 35.4559 50.1225 43.0148 44.6815 56.1635 32.0679 51.9892 49.847 26.7939 45.9209 42.2041 36.409 48.6855 27.635 56.6154 31.0257 41.7794 32.6229 53.0425 51.1249 21.6533 44.4359 54.9728 34.1365 44.5927 45.2889 47.4036 55.3726 39.8585 42.4253 35.025 54.8595 42.7506 42.8896 48.4353 52.8462 68.7142 51.8201 41.0472 53.8637 29.0279 31.861702 35.0502 53.5696 37.7963 94.4302 57.1974 36.1252 36.5976 53.5162 37.0196 45.1486 34.718 33.2938 46.7931 35.6296 52.8328 56.6795 37.939 34.6998 47.6983 53.3693 104.442 24.518 31.646599 31.219498 37.0559 37.2591 34.8022 44.3013 31.3726 50.5797 52.9419 54.5175 37.9954 29.9032 80.0467 50.7306 43.7056 48.3507 24.248 57.9911 29.2567 54.9599 55.2364 61.1451 41.829 46.2512 32.6842 35.7093 52.1137 75.6565 54.5594 44.7667 49.6152 38.5033 24.7872 38.0466 49.3306 21.1614 53.6132 41.1765 57.4883 48.5198 28.4327 29.2638 29.9762 49.2042 23.8313 36.559 91.5733 30.275 29.7125 42.6874 44.901 36.9535 78.1706 20.9946 26.1027 48.4237 40.8022 41.8413 62.6097 26.9892 50.9111 30.5714 39.9165 45.2083 41.2713 27.371 43.7334 35.1545 40.9872 52.3594 31.9342 27.2315 40.4936 44.3227 36.1944 52.4377 51.5206 41.0379 35.5271 47.8708 39.8879 52.654 37.9065 25.2333 42.1525 34.6753 46.357 28.2987 36.7053 32.0545 70.2672 47.4968 42.2795 30.5202 48.3154 52.1994 45.3241 45.7133 37.6444 36.2502 45.1061 33.5828 60.6689 33.9461 37.6537 39.7034 44.8828 37.0446 53.4254 53.7823 30.3882 35.7022 36.7541 45.2974 32.0593 74.9784 26.3114 46.6468 34.9818 
PEPMASS=713.897
CHARGE=2+
61.0417 325.0
714.3949 6811.0
223.1578 6466.0
251.1538 6132.0
110.0729 5983.0
194.9991 3471.0
714.8997 3298.0
1176.6543 2835.0
361.2046 2490.0
379.2149 2325.0
1177.6597 2111.0
594.8287 2091.0
935.5137 1834.0
695.3227 1776.0
822.4217 1703.0
609.8347 1589.0
698.3644 1502.0
175.1217 1440.0
1048.5975 1426.0
666.8279 1375.0
595.3305 1323.0
492.3043 1301.0
86.0983 1288.0
715.4050 1260.0
719.3667 1241.0
252.1585 1221.0
196.9968 1212.0
697.3210 1111.0
610.3359 1100.0
698.8661 1079.0
565.2426 1057.0
695.8282 1055.0
705.3912 1035.0
694.2774 979.0
936.5093 937.0
823.4272 920.0
224.1623 919.0
205.0301 902.0
122.0840 893.0
611.2384 889.0
1049.5959 883.0
717.3465 882.0
255.0319 858.0
680.6707 835.0
474.8584 788.0
497.6824 757.0
530.3118 756.0
574.7222 752.0
1289.7442 739.0
362.2039 738.0
1178.6583 734.0
717.8379 726.0
680.3328 702.0
659.3598 697.0
546.2678 695.0
704.8938 681.0
110.0302 652.0
242.1546 652.0
159.0229 635.0
686.3172 622.0
697.8213 616.0
694.7794 613.0
432.8354 608.0
565.7376 606.0
705.8901 593.0
584.2163 581.0
1290.7462 567.0
696.3455 562.0
675.3070 552.0
588.2311 546.0
460.2022 540.0
380.2170 531.0
574.9225 520.0
669.7484 519.0
355.2405 517.0
565.7019 516.0
307.0165 514.0
611.7400 497.0
627.2329 497.0
575.2315 489.0
595.8333 470.0
274.9546 469.0
574.5919 469.0
473.1791 464.0
681.0036 463.0
546.7672 460.0
677.0065 460.0
417.2268 456.0
111.0757 443.0
136.0786 438.0
600.8921 433.0
699.3684 431.0
498.1843 426.0
513.7325 421.0
587.2382 417.0
601.2170 416.0
403.6438 415.0
487.6937 415.0
506.2113 412.0
303.1809 410.0
493.3039 409.0
178.1384 407.0
616.2123 405.0
605.3866 403.0
610.8390 401.0
257.0283 399.0
647.2704 398.0
686.8214 395.0
566.2419 389.0
72.0834 381.0
144.9943 379.0
675.8078 379.0
516.7636 378.0
592.2603 376.0
552.7643 371.0
627.7285 368.0
454.6848 366.0
587.5756 365.0
676.6729 364.0
718.8342 363.0
528.2281 361.0
286.9368 359.0
529.8771 359.0
400.2008 357.0
464.3033 349.0
1159.6360 346.0
566.1996 344.0
538.1875 342.0
677.3357 342.0
129.1051 340.0
473.6796 339.0
273.0202 337.0
588.7251 332.0
715.9004 332.0
485.1606 330.0
688.3096 330.0
937.5134 330.0
61.0417 325.0
584.7149 324.0
214.1622 321.0
716.3863 316.0
592.7598 315.0
578.2597 313.0
670.2550 313.0
70.0668 309.0
869.4704 303.0
143.1194 302.0
634.3160 302.0
506.7202 301.0
685.8054 299.0
676.3523 298.0
473.1545 297.0
718.3573 290.0
460.6961 289.0
1160.6478 289.0
454.2079 287.0
546.7265 285.0
569.7331 285.0
631.2843 283.0
552.2467 281.0
532.7057 280.0
647.7736 276.0
1050.6071 274.0
560.8799 273.0
696.8693 271.0
573.6987 267.0
619.8954 265.0
496.1955 264.0
616.7135 264.0
706.3886 263.0
530.2088 260.0
201.1270 259.0
432.6733 257.0
515.2305 256.0
519.8542 254.0
601.5481 253.0
477.7257 251.0
519.5274 251.0
612.2443 251.0
213.0107 249.0
587.9122 249.0
324.9606 247.0
475.1626 246.0
638.2349 246.0
634.8248 245.0
716.7082 244.0
564.2763 242.0
607.7070 242.0
667.3052 242.0
255.1121 241.0
555.7565 241.0
133.0871 240.0
607.2130 239.0
539.7157 238.0
639.8058 238.0
625.3114 237.0
525.6365 236.0
580.3274 236.0
575.7169 235.0
658.3131 235.0
264.9279 233.0
497.1628 232.0
450.8513 229.0
488.1862 229.0
496.6930 229.0
646.2087 229.0
691.6696 228.0
1179.6650 228.0
441.2318 226.0
824.4335 225.0
476.5325 224.0
528.7279 224.0
588.5655 224.0
621.2648 224.0
503.2667 223.0
514.2277 223.0
531.3147 223.0
688.8001 223.0
600.8286 222.0
699.8528 222.0
89.0602 220.0
548.2265 220.0
653.2946 220.0
681.3339 220.0
476.8556 219.0
286.1530 216.0
515.5624 216.0
717.0382 216.0
589.2358 215.0
608.2504 214.0
600.2256 213.0
689.3215 213.0
526.8534 211.0
256.0400 210.0
608.7641 210.0
434.7683 209.0
561.2102 209.0
542.5308 208.0
719.3333 208.0
179.0221 207.0
404.1461 207.0
606.9128 207.0
666.2538 207.0
713.3598 207.0
430.7058 206.0
574.2067 205.0
621.7719 205.0
704.6965 204.0
521.5071 201.0
538.6815 201.0
570.2352 201.0
660.3563 201.0
676.8491 201.0
504.1326 200.0
563.1554 200.0
713.3830 197.0
607.5806 196.0
383.1691 195.0
548.5620 195.0
434.8311 193.0
466.1927 192.0
579.8105 192.0
455.1874 191.0
645.3426 191.0
648.2783 190.0
498.6929 189.0
498.7535 189.0
562.6590 189.0
667.8041 189.0
677.3063 189.0
304.9025 188.0
578.6934 186.0
598.9065 186.0
650.7692 186.0
589.2327 185.0
599.8812 185.0
556.7200 184.0
655.2763 184.0
622.2697 183.0
559.2068 181.0
244.1671 180.0
547.2247 180.0
558.5237 180.0
84.0841 179.0
134.9660 179.0
664.2806 179.0
589.5576 178.0
653.7934 175.0
717.3720 175.0
576.9552 174.0
691.3379 174.0
692.0042 174.0
517.2680 173.0
525.7362 173.0
699.3407 173.0
573.5462 172.0
619.5681 172.0
588.9052 171.0
643.9630 171.0
578.7598 170.0
543.6793 169.0
567.2268 169.0
579.2025 169.0
601.8859 169.0
646.7071 169.0
677.6652 169.0
687.3168 169.0
308.6473 168.0
344.1822 168.0
530.5488 168.0
559.7152 168.0
560.7216 168.0
557.2639 166.0
558.6943 165.0
654.9436 165.0
500.6691 164.0
555.5388 164.0
575.2584 164.0
214.9192 163.0
474.2858 163.0
668.6280 163.0
870.4814 163.0
1158.6624 161.0
493.2128 160.0
598.5761 159.0
638.7324 159.0
414.8218 158.0
556.2452 158.0
687.8206 158.0
427.6643 157.0
635.3250 157.0
640.2427 157.0
232.9358 155.0
699.6844 155.0
527.7310 154.0
607.2496 154.0
628.2492 154.0
199.1859 152.0
496.9359 152.0
542.8641 152.0
544.1899 152.0
561.5418 152.0
625.8096 152.0
631.7806 152.0
290.6651 151.0
535.2287 151.0
402.2549 150.0
443.1857 149.0
685.6668 149.0
585.2167 148.0
593.2205 148.0
666.3024 148.0
306.8977 147.0
570.7113 147.0
589.9002 147.0
676.8030 147.0
540.2127 146.0
566.7141 146.0
580.3252 146.0
645.7853 146.0
465.3089 145.0
618.2916 145.0
638.6305 145.0
682.6897 145.0
258.9778 144.0
555.8861 144.0
602.5472 144.0
682.3496 144.0
461.1986 143.0
688.3477 143.0
708.3291 143.0
598.2333 142.0
602.2244 142.0
660.7466 142.0
293.1164 141.0
476.8015 141.0
485.6675 141.0
573.8667 141.0
583.7502 141.0
585.5879 141.0
661.2547 141.0
708.8110 141.0
526.1366 140.0
592.2111 140.0
617.2126 140.0
640.2895 140.0
768.4574 140.0
185.1688 139.0
234.1323 139.0
258.0332 138.0
479.1763 138.0
521.8470 138.0
575.5900 138.0
687.9921 138.0
535.8803 137.0
630.2169 137.0
655.7902 137.0
677.7933 137.0
416.7625 136.0
520.1897 136.0
582.2735 136.0
622.7759 135.0
688.3270 135.0
678.0021 134.0
196.0020 133.0
710.3137 133.0
225.1260 132.0
601.3299 132.0
664.7771 132.0
415.1316 131.0
557.7236 131.0
557.7635 131.0
558.1836 131.0
592.5507 131.0
617.7938 131.0
899.9235 131.0
427.2105 130.0
586.7011 130.0
593.2659 130.0
621.9231 130.0
328.1710 129.0
452.7895 129.0
619.2396 129.0
189.0515 128.0
645.2934 128.0
654.2803 128.0
709.3280 128.0
363.2078 127.0
501.5605 127.0
514.5473 127.0
527.5203 127.0
547.2742 127.0
206.0327 126.0
492.1548 126.0
577.4004 126.0
527.1878 125.0
532.5092 125.0
561.7453 125.0
585.7199 125.0
593.6252 125.0
936.9609 125.0
181.0225 124.0
352.1408 124.0
423.0926 124.0
638.9613 124.0
669.2806 124.0
712.8631 124.0
476.1657 123.0
381.2228 122.0
515.8941 122.0
519.1844 122.0
522.2513 122.0
653.9559 122.0
475.8350 121.0
589.7291 121.0
592.8997 121.0
638.2955 121.0
652.2602 120.0
282.9379 119.0
304.9498 119.0
507.2377 119.0
537.2582 119.0
585.9208 119.0
652.7874 119.0
596.3181 118.0
662.2774 118.0
581.9127 117.0
630.7034 117.0
644.2981 117.0
659.2555 117.0
334.9878 116.0
472.1244 116.0
514.7343 116.0
562.5978 116.0
599.2369 116.0
206.1328 115.0
492.6655 115.0
508.8636 114.0
519.2858 114.0
619.7323 114.0
668.9472 114.0
532.1687 113.0
538.2935 113.0
356.2435 112.0
568.2578 112.0
700.0207 112.0
478.2269 110.0
481.6926 110.0
567.7273 110.0
574.2018 110.0
706.8777 109.0
374.8719 108.0
452.2162 108.0
453.2381 108.0
687.6639 108.0
326.9587 107.0
438.1417 107.0
418.2228 106.0
496.5687 106.0
594.8931 106.0
619.2424 106.0
522.7591 105.0
535.5468 105.0
899.4323 105.0
488.4805 104.0
558.2610 104.0
595.8902 102.0
END IONS
BEGIN IONS
TITLE=Spectrum 1GLYPHOS_LLSYVDDEAFIR_1439_01.csv DRIFT_TIME=16.3538 16.5499 16.2332 16.4149 16.6617 16.0751 16.3407 16.2764 16.9118 28.2173 16.2177 16.9246 16.6691 16.2727 16.1803 16.3406 17.0117 17.4205 16.7309 16.8366 17.4276 17.4559 16.9165 22.2428 18.2855 18.3293 16.336 18.7434 20.729 17.8616 20.2595 18.2931 20.8367 20.0279 20.4085 18.1122 19.9456 22.3207 20.0781 20.0713 19.0118 19.3979 21.8294 20.9035 24.8025 21.2629 25.0455 24.2716 24.2904 28.0148 28.1043 24.4499 23.326 25.2598 23.4758 25.293 23.9849 23.9696 24.8075 26.9266 27.0162 26.2918 27.8785 28.1761 31.033401 28.2173 31.1069 27.0109 27.1784 25.4812 28.6661 28.9924 30.2791 32.1846 39.4736 33.3559 28.2256 29.9486 30.1179 29.4311 30.1931 30.633 29.2139 31.725502 32.7326 32.0488 34.9618 33.1667 33.4987 30.9069 36.7572 34.6428 38.1213 27.4348 40.3082 34.982 21.965 45.4712 44.977 45.1487 26.2444 40.0739 28.256 33.3591 33.0091 22.002 38.3745 42.292 44.4647 38.7586 44.7595 38.7023 37.9274 38.4642 41.2677 45.58 37.6248 42.1612 37.5077 31.936897 39.6776 45.0215 32.9174 27.8384 45.169 29.998 47.6355 46.3661 49.909 52.4572 52.0706 46.002 52.5656 31.0205 31.013 48.7572 29.1751 28.9024 50.122 41.078 51.746 58.8282 57.0609 59.8569 59.2832 50.863 30.4462 42.117 54.3778 32.1725 35.1335 67.8852 34.6093 61.4773 61.6985 53.6091 36.5034 53.4661 26.0359 43.3898 34.691 54.1055 54.6026 64.8095 31.7 38.8799 36.4856 37.0688 34.4856 63.312897 38.6532 64.4423 38.5908 63.5559 61.8179 37.8182 57.8849 36.0165 36.6201 36.5143 27.1362 26.0753 25.9428 37.3973 36.8617 36.2255 38.5883 66.3248 65.6238 38.003 48.4806 34.5206 34.5863 36.6189 36.5929 36.0051 63.301804 62.7571 35.7763 39.3531 39.2301 40.0923 40.7889 55.9181 36.0682 36.3481 56.1726 39.0289 37.6049 37.9474 37.8178 28.7274 39.8773 28.8837 40.9612 41.0231 41.632 34.1418 39.2912 71.1186 39.5821 71.8426 49.9582 31.854797 38.0758 38.8412 41.7395 42.3485 42.2414 30.2056 29.9872 41.6591 30.9551 40.9271 39.9179 43.3624 29.8607 29.9304 29.7094 37.1738 37.7311 45.4783 41.1727 38.2383 40.7197 37.6208 40.3272 40.1963 29.5576 29.2043 42.4178 41.9357 41.8348 31.095001 30.9705 31.547699 29.9921 30.3912 39.4546 42.3753 42.0722 42.1259 31.555 41.957 42.4223 41.8027 42.1783 42.1591 30.9986 43.1908 31.859001 42.8543 31.068 72.604 41.2138 40.8949 49.1147 41.8795 49.6281 42.7598 49.5498 32.7244 32.6238 42.1319 43.819 93.4341 45.6693 46.4037 46.3141 46.6967 68.1655 32.6118 44.5689 32.1834 45.3347 43.6592 42.3271 46.044 32.6038 32.9728 41.4037 32.8361 41.4344 42.5057 75.0387 43.6502 32.3994 32.3711 75.0118 33.3059 42.5911 33.7375 41.7578 33.7401 41.9839 72.3885 46.6724 46.716 46.3318 41.8241 46.3742 34.4427 42.2835 46.5389 42.394 44.761 45.0218 44.2926 40.915 43.02 32.4527 32.638 71.3655 32.9462 70.3738 33.306 42.8567 32.9885 37.6491 43.8944 39.0859 36.2181 43.8476 43.8186 43.1171 39.2177 43.4669 44.1047 44.4599 43.8605 43.2722 83.1474 72.9299 82.274 35.8491 36.1266 36.4152 34.738 44.4124 44.3334 45.5757 44.8783 36.4772 36.7996 49.1229 36.1108 44.9339 35.4548 75.0118 34.1718 44.826 33.8182 34.308 45.1964 74.4865 34.7378 45.264 34.0267 35.8516 49.7737 34.5118 49.4554 48.6992 37.5747 37.0938 47.9986 35.7031 35.0264 43.0122 84.3648 42.4362 35.2421 35.6194 49.2428 48.7984 35.4272 35.009 35.8156 36.0729 35.7194 35.7153 36.4338 35.4241 35.3535 48.1187 48.3761 36.778 44.7594 37.3502 49.8448 103.199 36.4129 49.2271 47.427 103.9472 47.9848 47.7794 48.0313 49.2783 47.7349 35.7252 35.74 36.1104 49.1496 49.0742 49.0556 49.6326 50.2072 36.716 36.6805 48.6851 38.4592 47.6603 38.9526 50.1161 51.1933 48.8454 87.8041 49.3478 88.3292 50.9544 49.0903 49.1266 41.7266 40.9686 42.039 52.0973 52.1409 53.2949 85.1619 85.895 50.3087 51.262 50.3265 40.2698 39.8565 93.4321 51.432 90.3629 50.7963 51.0585 52.5714 51.6459 52.2046 40.1845 51.3088 54.1744 53.668 52.6435 52.5833 53.0766 52.6777 41.4532 41.1606 40.3007 40.7018 40.7877 54.9397 54.9164 55.2433 55.7604 54.0952 54.9642 54.6149 48.0698 55.1347 44.377 44.8522 113.1112 53.8001 40.5976 56.0916 40.8831 40.9481 55.4918 51.7392 55.7294 55.6323 40.1133 55.4695 39.468 39.7916 55.0993 41.1481 55.5067 42.382 41.1501 57.6797 58.0209 55.9328 53.8999 42.3061 46.1953 43.1804 43.4326 43.9203 45.0946 54.1467 54.864 54.7721 55.1394 47.5289 47.7819 55.0518 92.2817 43.3773 42.9133 43.2743 43.0754 54.425 43.3805 43.2866 56.4194 57.072 57.9755 59.6577 59.6964 58.6359 57.1798 47.8402 48.1523 58.2065 47.5839 48.2336 48.4042 47.8496 93.3801 91.2943 60.6975 60.3042 62.1337 48.3203 50.0854 60.4322 61.0001 59.65 58.5576 91.3103 91.3779 49.8524 49.834 62.077 49.8076 62.938 49.6742 50.0955 61.982 49.3983 62.9126 98.2577 99.6249 63.2334 101.7361 60.7025 92.9351 62.1542 50.0351 61.9292 62.1583 61.7505 92.1088 93.8201 101.2737 99.9142 63.267 63.379105 96.3276 61.4786 97.4073 98.8194 63.6875 61.604 65.7328 63.830597 63.796097 65.5915 66.159 65.3757 65.1888 66.229 71.7312 71.5952 71.5201 105.7493 110.447 113.0657 113.159 107.5051 110.8342 109.5379 109.2714 74.8657 76.1833 76.3378 76.4025 75.656 77.3324 76.4531 77.2542 83.5347 82.8487 123.8579 128.3211 128.2335 130.9834 125.1227 124.9366 123.9049 124.633 125.3051 88.0191 88.1214 90.0549 130.4747 133.2681 130.0529 136.3738 136.4953 134.7164 132.8155 156.7551 149.7185 149.1732 145.4352 160.5957 161.721 164.0148 161.3489 158.5032 155.8631 157.048 152.3461 152.3036 176.0326 
PEPMASS=720.8745
CHARGE=2+
55.0567 215.0
61.0417 277.0
69.0714 152.0
70.0670 1394.0
72.0827 2991.0
80.0143 169.0
84.0467 202.0
84.0828 308.0
86.0979 7330.0
86.0983 123.0
87.0470 295.0
87.1010 509.0
89.0606 634.0
104.0737 146.0
110.0297 872.0
110.0748 505.0
115.0899 147.0
120.0829 467.0
121.0688 157.0
122.0835 1413.0
129.1047 718.0
130.0889 228.0
133.0887 871.0
134.9665 133.0
136.0779 7719.0
137.0832 792.0
140.0452 199.0
143.1201 597.0
144.9961 618.0
147.1161 359.0
157.1362 165.0
158.0967 141.0
159.0221 537.0
159.0962 142.0
163.0062 159.0
165.0943 171.0
171.1175 387.0
173.1343 168.0
175.1238 2102.0
176.1259 236.0
177.1170 272.0
178.0557 150.0
179.0243 193.0
184.1102 154.0
185.1680 5050.0
186.1271 225.0
186.1725 821.0
195.0003 2716.0
196.9976 955.0
199.1844 3930.0
200.1876 599.0
201.1283 1028.0
202.1325 184.0
204.1383 1525.0
205.0281 934.0
205.1436 204.0
206.0423 128.0
212.1080 374.0
213.0102 217.0
213.1633 3770.0
214.1648 665.0
214.9208 253.0
223.1126 2325.0
224.1199 348.0
227.1799 1893.0
228.1405 120.0
228.1861 285.0
229.1264 222.0
230.1182 146.0
232.9352 168.0
233.1355 295.0
234.1269 141.0
235.1482 409.0
242.1525 259.0
247.2123 335.0
249.1657 492.0
249.9922 125.0
251.1076 615.0
252.1174 124.0
255.0327 701.0
255.1152 231.0
256.0419 296.0
257.0306 301.0
261.1314 201.0
263.1424 175.0
264.9291 212.0
271.1825 113.0
273.0176 801.0
274.0217 103.0
274.9551 601.0
277.1641 131.0
283.1462 164.0
284.2040 165.0
286.9351 453.0
288.2085 386.0
290.1511 110.0
290.6628 226.0
291.2382 662.0
296.2049 1030.0
297.2096 221.0
299.1754 170.0
304.9043 186.0
304.9501 167.0
307.0137 810.0
308.0107 141.0
308.6503 163.0
310.1833 157.0
313.1962 142.0
314.2140 1348.0
315.1740 386.0
315.2188 246.0
316.1763 111.0
317.0857 168.0
324.9565 144.0
327.1352 589.0
331.2097 382.0
333.0481 108.0
333.1845 713.0
334.9909 124.0
340.1721 184.0
342.9447 140.0
346.1849 374.0
346.9710 188.0
347.6885 113.0
350.1775 368.0
360.6941 128.0
364.1958 214.0
367.9427 165.0
369.2230 166.0
371.2498 126.0
376.2323 411.0
377.1569 145.0
377.2326 114.0
396.6899 211.0
397.1839 125.0
401.9369 119.0
403.6401 411.0
404.1408 148.0
407.9852 129.0
409.0267 257.0
409.1886 133.0
412.2618 154.0
414.2410 187.0
418.2448 137.0
419.2554 128.0
424.1559 215.0
424.6403 127.0
424.8524 136.0
427.2100 172.0
427.6613 205.0
430.7060 217.0
431.2716 204.0
432.6692 232.0
435.2784 371.0
436.2812 125.0
441.1833 537.0
441.2294 124.0
442.1812 139.0
442.8535 136.0
442.8664 221.0
443.1945 133.0
443.9626 425.0
445.9620 316.0
449.2867 154.0
451.6374 123.0
454.2044 246.0
454.6828 365.0
455.1888 171.0
458.2028 117.0
459.2748 372.0
460.2011 467.0
460.2751 102.0
460.7096 185.0
463.2712 189.0
465.2135 131.0
466.2177 116.0
468.1919 108.0
470.1914 187.0
473.1823 462.0
473.6865 329.0
475.8365 167.0
476.5352 136.0
476.8647 140.0
477.7248 230.0
478.7148 178.0
479.1881 131.0
479.7257 184.0
480.2573 973.0
481.2584 207.0
482.7415 167.0
484.8830 127.0
485.1671 288.0
485.6638 176.0
487.1783 101.0
487.6926 345.0
488.1887 179.0
490.1975 130.0
491.1894 242.0
492.1562 174.0
493.2183 176.0
493.7265 156.0
494.2306 147.0
494.7467 129.0
494.9288 164.0
496.1954 130.0
496.6967 193.0
496.9445 141.0
497.1662 197.0
497.6902 537.0
498.1900 372.0
500.6682 220.0
501.5669 118.0
501.7488 121.0
501.8986 127.0
502.2440 165.0
503.2584 147.0
503.7450 169.0
504.1361 151.0
506.2137 406.0
506.3176 554.0
506.7164 209.0
507.3282 207.0
508.8618 118.0
508.8670 164.0
510.1701 127.0
511.1829 130.0
513.7374 392.0
514.2363 263.0
514.7363 110.0
515.2292 270.0
515.5593 214.0
515.7353 127.0
515.8925 122.0
516.2303 140.0
516.6623 182.0
516.7689 280.0
519.5227 185.0
519.8525 221.0
520.1836 122.0
521.5135 210.0
521.8432 178.0
522.2523 113.0
525.2451 242.0
525.6372 248.0
525.7362 904.0
526.1408 165.0
526.2362 587.0
526.7320 271.0
526.8508 138.0
527.1901 168.0
527.7325 111.0
528.2275 345.0
528.7255 231.0
529.8786 241.0
530.2073 222.0
530.5521 121.0
532.1618 139.0
532.4967 123.0
534.1215 118.0
534.2461 6888.0
534.7474 5036.0
535.2478 1956.0
535.5560 131.0
535.7487 609.0
536.2465 160.0
538.1828 378.0
538.6904 198.0
539.7122 260.0
539.8728 143.0
540.2245 164.0
542.5275 146.0
542.7477 107.0
542.8738 130.0
543.2279 164.0
543.6863 188.0
544.1783 123.0
546.2711 467.0
546.7325 170.0
546.7716 236.0
547.2324 139.0
547.2733 121.0
548.2225 168.0
548.5682 122.0
549.2357 136.0
550.7523 144.0
551.3413 238.0
552.2572 245.0
552.7664 252.0
553.2714 244.0
553.7744 138.0
554.2105 135.0
555.5341 198.0
555.7582 347.0
555.8845 164.0
556.2468 215.0
556.7402 168.0
557.1640 181.0
557.2540 147.0
558.1955 163.0
558.5236 166.0
558.6977 166.0
558.8643 116.0
559.1972 129.0
559.7122 138.0
560.2666 355.0
560.7170 139.0
560.8823 261.0
561.2202 144.0
561.2570 150.0
561.5553 145.0
562.2802 126.0
562.5925 140.0
562.6623 183.0
562.9286 117.0
563.1627 131.0
564.2784 310.0
564.2861 343.0
564.7820 259.0
565.2454 1017.0
565.6991 424.0
565.7432 760.0
565.8960 118.0
566.2018 375.0
566.2584 246.0
566.7164 224.0
566.7434 211.0
567.2427 136.0
568.2748 113.0
569.7293 293.0
570.2433 191.0
570.8354 122.0
571.1820 113.0
571.2270 350.0
571.5110 125.0
572.2295 149.0
573.5434 199.0
573.7071 248.0
573.8622 143.0
574.5952 359.0
574.7285 634.0
574.9258 326.0
574.9260 318.0
575.2337 343.0
575.7187 149.0
576.2243 114.0
576.6168 148.0
578.2479 179.0
578.6955 520.0
579.1960 422.0
579.7181 128.0
580.2154 110.0
580.3301 204.0
581.2801 103.0
581.3412 172.0
581.9189 127.0
582.5757 133.0
582.9076 137.0
583.2345 131.0
583.2930 502.0
583.7921 330.0
584.2149 172.0
584.7133 210.0
587.2436 508.0
587.5761 452.0
587.7910 103.0
587.9060 288.0
588.2318 641.0
588.2470 181.0
588.2552 672.0
588.5551 377.0
588.7318 258.0
588.8908 315.0
589.2209 230.0
589.2357 213.0
589.2512 293.0
589.5559 153.0
589.7531 123.0
590.5478 120.0
592.2068 122.0
592.2694 536.0
592.5365 124.0
592.7685 262.0
593.2644 152.0
593.2981 124.0
593.6342 120.0
593.7439 142.0
594.5749 125.0
595.8861 127.0
597.2419 207.0
597.3473 486.0
597.7424 136.0
598.2417 222.0
598.5780 183.0
598.7793 178.0
599.2840 184.0
599.8931 242.0
600.2196 231.0
600.5589 169.0
600.8881 362.0
601.2252 336.0
601.5616 256.0
601.9008 156.0
602.2229 135.0
602.5386 146.0
603.2503 122.0
606.7901 115.0
606.9164 193.0
607.2046 207.0
607.2495 176.0
607.2719 301.0
607.4128 248.0
607.5820 143.0
607.7820 220.0
608.2575 216.0
608.4075 151.0
611.2381 981.0
611.7395 552.0
612.2490 364.0
612.7612 157.0
613.2214 132.0
613.5391 124.0
614.2182 130.0
614.5571 154.0
615.7820 3074.0
616.2843 2412.0
616.7840 1130.0
617.2823 299.0
617.7807 141.0
619.5677 111.0
619.8926 122.0
621.2672 220.0
621.5933 112.0
621.7642 157.0
621.9304 110.0
622.2768 119.0
625.3029 142.0
627.2399 331.0
627.3280 418.0
627.7376 319.0
628.3315 226.0
628.8077 181.0
630.2196 176.0
630.7113 116.0
631.3270 146.0
631.6526 203.0
631.9885 112.0
634.3224 188.0
634.8241 145.0
635.3159 130.0
635.3629 953.0
636.3714 366.0
638.7771 110.0
640.2598 176.0
642.8214 125.0
643.9784 147.0
644.3030 127.0
645.3558 365.0
646.2045 843.0
646.3501 164.0
646.7107 484.0
647.2118 216.0
647.2939 253.0
647.7738 235.0
648.2942 125.0
649.6178 138.0
650.2566 161.0
650.3244 155.0
650.8271 145.0
651.3114 117.0
652.7787 107.0
653.2800 111.0
653.8008 114.0
653.9499 162.0
654.2854 130.0
654.6202 105.0
654.9448 138.0
655.2718 157.0
655.3286 148.0
655.8349 204.0
656.3204 139.0
658.3251 237.0
658.8175 220.0
659.3253 168.0
661.7626 176.0
661.7944 208.0
662.2682 154.0
662.9987 187.0
663.3274 153.0
663.4781 146.0
663.7968 147.0
663.9609 204.0
664.3061 131.0
664.3121 202.0
664.6315 167.0
664.8120 147.0
666.2483 122.0
666.8318 558.0
667.3388 1109.0
667.5904 232.0
667.8395 814.0
667.9275 294.0
668.2474 132.0
668.3345 293.0
668.6042 190.0
668.8365 140.0
668.9572 173.0
669.3012 133.0
669.3390 158.0
669.8267 124.0
670.2546 132.0
672.2975 136.0
673.3157 131.0
677.6646 111.0
679.9705 156.0
680.3089 187.0
680.6627 175.0
680.9987 129.0
682.3616 217.0
682.7141 311.0
683.0396 157.0
686.3171 152.0
686.6771 132.0
687.0173 167.0
688.7293 113.0
691.3242 122.0
692.9901 758.0
693.3222 877.0
693.6578 691.0
693.9887 312.0
694.2798 134.0
694.3236 214.0
694.6633 150.0
695.3168 157.0
697.3169 127.0
697.8502 162.0
698.3612 204.0
698.8687 231.0
699.8547 176.0
700.3304 165.0
703.3726 231.0
703.7039 235.0
703.8260 188.0
704.0381 125.0
705.0263 315.0
705.3671 237.0
705.6891 108.0
707.3247 176.0
709.3375 118.0
711.3543 187.0
711.8631 180.0
712.3683 189.0
713.7040 239.0
714.0385 248.0
715.8909 113.0
716.3891 271.0
716.8569 191.0
717.3378 165.0
718.2978 281.0
719.3113 152.0
719.3721 384.0
719.7042 1507.0
719.8680 580.0
720.0396 1365.0
720.3748 515.0
720.3757 752.0
720.7081 394.0
720.8736 217.0
721.0412 138.0
721.3688 123.0
721.4008 177.0
722.3993 530.0
723.3643 123.0
723.4177 416.0
724.3453 127.0
724.3916 198.0
724.8912 1772.0
725.0432 186.0
725.3899 1310.0
725.8921 592.0
726.3614 158.0
735.3332 287.0
736.3119 166.0
741.3684 496.0
742.3694 260.0
742.3895 124.0
742.8773 111.0
750.3942 963.0
750.8450 124.0
751.3983 424.0
752.3385 137.0
756.3969 105.0
759.8120 111.0
770.8687 125.0
772.3685 127.0
772.8674 161.0
773.4122 464.0
773.9132 301.0
778.8760 126.0
787.3789 196.0
787.8843 190.0
829.9556 861.0
830.4590 615.0
830.9673 221.0
847.3436 207.0
856.4039 594.0
857.4006 276.0
864.3615 375.0
864.3716 305.0
865.4175 2944.0
866.4239 1364.0
867.4281 413.0
869.9317 167.0
884.9804 209.0
885.4762 627.0
885.9726 440.0
886.4800 155.0
893.9903 729.0
894.4889 528.0
894.9823 160.0
950.5301 303.0
951.0359 224.0
953.4172 149.0
964.4857 2016.0
965.4960 1034.0
966.4926 348.0
966.5102 262.0
970.4481 1005.0
971.4490 610.0
972.4435 300.0
981.4160 161.0
986.0453 247.0
986.5515 226.0
987.0413 120.0
1027.4274 144.0
1049.4841 139.0
1050.4784 271.0
1067.4941 2998.0
1068.5013 2027.0
1069.4962 784.0
1070.4928 219.0
1078.6619 305.0
1127.5618 718.0
1128.5759 434.0
1129.5841 165.0
1214.5880 2298.0
1215.5962 1541.0
1216.5929 532.0
1216.6005 535.0
1217.6091 181.0
1230.5641 651.0
1231.5556 404.0
1231.5832 399.0
1232.5778 198.0
1327.6873 153.0
END IONS
BEGIN IONS
TITLE=Spectrum 1GLYPHOS_VAAAFPGDVDR_1117_01.csv DRIFT_TIME=16.3564 16.4375 16.3666 16.3724 16.6789 16.6189 16.227 16.4326 16.5089 16.8101 16.3109 16.8242 16.6717 19.57 16.7411 16.1558 16.5123 16.2717 16.5584 17.2136 17.1099 17.4051 16.4666 17.6267 16.8488 25.948 31.874298 21.0026 51.2134 91.5559 58.6698 35.4894 24.2795 75.5256 18.26 36.3229 20.2918 93.1158 78.0488 38.8943 42.1257 16.9068 29.0807 88.1259 16.8488 20.6024 30.9776 54.9555 31.077301 16.6717 25.9043 34.4176 34.2848 33.2359 33.6336 16.227 90.6709 47.4351 31.1846 27.6827 72.7189 19.2277 25.8857 40.8287 23.5573 25.9014 44.6449 40.6871 16.6189 47.5471 50.9751 27.99 38.3626 30.2354 31.601898 29.3217 16.4375 40.7619 33.2344 37.4622 42.4332 52.623 37.573 36.9662 33.7262 90.2763 35.1357 29.5669 28.3692 52.9594 36.2016 36.2508 17.2136 17.2813 38.4304 79.2792 25.9171 37.0084 30.1283 30.9409 86.2934 34.6351 25.5933 39.588 24.6252 69.0589 19.4063 92.747 26.2439 25.0319 24.764 41.2422 36.2788 27.9225 77.8984 67.8512 34.4037 22.6473 19.4983 22.1655 17.461 52.0486 26.3792 38.8121 37.0084 28.8237 26.3062 59.8235 22.1772 16.7411 76.7856 18.4915 51.4571 60.7801 16.5089 52.9272 31.925102 20.172 19.6617 50.7726 26.1727 40.2989 31.5326 66.493 18.9219 19.4367 35.9886 42.794 31.6697 72.5314 62.8508 24.2369 47.3508 88.9369 32.3325 24.3328 42.0053 80.0355 18.2034 46.1661 35.5502 16.3109 35.6853 27.5179 20.467 29.8662 39.3792 26.911 29.5155 43.1909 29.4653 59.4755 19.57 30.112 21.6101 30.2082 24.0869 16.4326 28.2048 55.577 28.1523 40.9866 66.8748 50.5248 81.1471 52.1679 32.4758 42.0079 32.3918 25.8341 54.6723 36.1677 16.8242 46.1417 27.271 57.4464 33.0759 39.1267 39.8911 46.6083 42.2638 17.6267 16.5584 35.2281 25.549 27.1494 41.9644 54.8093 38.1556 86.0944 37.5682 26.2836 16.2717 24.8008 41.9212 34.5201 45.6032 28.5689 29.9498 16.3666 42.7813 27.6965 72.6849 59.3218 33.0858 29.2363 37.5019 38.9389 50.901 29.3063 63.3199 33.5042 59.7517 43.5103 21.5799 23.6275 16.4666 28.898 45.4096 34.0028 42.7603 24.9928 27.1715 35.5722 50.0601 30.0742 30.9417 24.3277 39.9191 17.1099 31.964302 36.2417 82.1048 30.9791 36.0074 35.0213 23.9004 41.949 45.5704 65.3173 33.6967 27.78 34.9222 35.4097 24.1324 56.1868 16.3564 31.707703 36.662 50.3428 36.2701 43.2901 35.3055 36.2713 51.5257 52.1533 23.8314 43.595 29.3608 40.0945 28.1002 43.8407 23.9228 16.6675 19.9528 21.1908 30.0022 24.9347 39.0553 17.4262 46.3082 31.4463 25.1156 24.8505 33.566 67.1169 51.1531 32.2242 64.2006 24.4436 48.097 59.4509 23.563 53.1502 24.381 33.7711 77.9882 17.5187 18.8127 37.0071 36.6079 41.3642 36.3584 26.4741 38.4336 42.5345 52.7775 21.2498 40.2345 25.6983 47.6879 31.7388 56.9311 36.333 21.6846 41.1368 90.8541 26.9264 25.1747 32.603 44.6728 27.6087 22.9044 28.8997 35.6215 30.4322 22.5194 32.0329 43.728 50.2456 67.2904 27.5935 41.5303 55.9894 43.1791 28.4842 30.9224 21.4686 30.0723 40.7804 29.3214 56.2023 67.3948 25.7091 37.1817 66.3245 73.1901 47.0494 80.9391 50.9876 28.9091 29.9761 35.7302 40.7512 44.5598 85.124 39.5158 22.1387 38.4276 35.9763 62.4934 24.7742 50.9281 30.3438 22.8083 33.9677 35.0654 50.4764 33.6601 25.4328 22.9588 27.8492 47.44 28.1162 84.9301 20.4411 46.2987 28.4881 78.3685 75.3545 76.1299 73.7883 28.4881 73.7883 75.3545 76.1299 78.3685 47.0706 48.6839 57.7317 55.831 47.0706 48.6839 55.831 57.7317 27.1957 34.3373 30.5595 52.3789 27.1957 30.5595 34.3373 52.3789 39.1897 44.3693 39.1897 44.3693 78.1836 78.1836 45.4021 91.9974 45.4021 91.9974 32.8899 29.9099 27.8514 36.9333 50.1102 27.8514 29.9099 32.8899 36.9333 50.1102 36.5253 36.5253 26.4022 74.4538 26.4022 74.4538 40.8885 36.2762 48.8231 36.2762 40.8885 48.8231 28.0313 25.0202 48.2912 51.9213 25.0202 28.0313 48.2912 51.9213 23.4986 53.2025 52.3911 30.5316 43.4751 88.0719 23.4986 30.5316 43.4751 52.3911 53.2025 88.0719 30.3349 47.3876 84.5782 30.3349 47.3876 84.5782 56.2685 68.8136 68.8136 32.729 91.3754 32.729 91.3754 60.6091 36.4749 69.4661 36.4749 60.6091 69.4661 26.3091 26.3091 
PEPMASS=559.2875
CHARGE=2+
55.0553 180.0
61.0409 569.0
69.0710 215.0
70.0659 3200.0
72.0816 2674.0
74.0608 669.0
80.0130 835.0
84.0458 250.0
84.0813 323.0
86.0973 4068.0
87.0449 272.0
87.0990 237.0
89.0607 915.0
98.9875 255.0
102.0550 336.0
110.0283 2752.0
110.0716 4585.0
110.5302 220.0
111.0750 229.0
115.0866 471.0
116.0729 189.0
120.0821 2425.0
121.0685 198.0
121.0850 231.0
122.0818 979.0
211.1213 1505.0
340.6682 1346.0
159.0203 1342.0
341.2383 1285.0
684.3552 1253.0
454.2445 1251.0
285.1374 1193.0
196.9940 1166.0
601.3161 1163.0
136.0767 1122.0
454.6760 1095.0
144.9934 1056.0
680.3375 1037.0
543.2767 1015.0
438.2257 1013.0
322.8827 1011.0
133.0873 1007.0
403.6358 1002.0
674.3670 988.0
122.0818 979.0
169.1363 956.0
529.5647 942.0
381.2453 934.0
529.8963 930.0
89.0607 915.0
214.9197 915.0
485.1546 884.0
433.1663 883.0
307.0087 877.0
257.1403 844.0
80.0130 835.0
703.3657 831.0
382.9149 827.0
274.9521 812.0
228.1471 791.0
561.2634 782.0
159.0791 757.0
232.9295 735.0
528.2254 725.0
205.0257 709.0
330.1626 688.0
334.1915 674.0
313.1926 670.0
74.0608 669.0
321.2116 664.0
378.1794 654.0
342.6747 646.0
316.1171 636.0
237.1368 596.0
264.9246 590.0
404.1347 575.0
61.0409 569.0
528.7231 557.0
270.1073 547.0
497.6824 547.0
358.9034 537.0
383.1670 534.0
498.1840 531.0
283.1466 525.0
265.1255 524.0
662.3077 524.0
389.7014 511.0
351.6798 501.0
232.1405 493.0
668.7736 493.0
455.1793 482.0
487.6866 480.0
115.0866 471.0
143.0834 470.0
454.1987 467.0
641.2921 464.0
227.1041 452.0
441.2231 447.0
255.1104 442.0
530.2252 441.0
660.3283 441.0
485.6580 434.0
215.1172 431.0
304.8986 417.0
287.1594 410.0
444.3061 404.0
166.0639 398.0
685.3540 398.0
476.5231 393.0
214.1168 388.0
197.1286 387.0
513.7294 382.0
473.1772 380.0
328.6744 379.0
544.3645 377.0
439.1960 373.0
347.9772 358.0
199.1072 355.0
187.0746 354.0
134.9653 353.0
129.1032 351.0
396.2113 350.0
352.1376 347.0
438.7299 347.0
285.1943 343.0
258.9730 342.0
476.8574 340.0
484.2080 338.0
290.6627 337.0
102.0550 336.0
602.3124 332.0
158.0958 328.0
390.2227 327.0
457.2083 326.0
84.0813 323.0
669.2752 318.0
403.1936 316.0
176.1235 313.0
172.1151 312.0
324.2319 312.0
209.1419 311.0
503.2714 309.0
243.1531 308.0
443.2820 306.0
177.1141 305.0
178.0542 305.0
290.1499 305.0
554.7307 305.0
256.0402 301.0
525.2481 293.0
438.2262 292.0
367.6109 290.0
369.1806 290.0
675.3653 290.0
249.1619 284.0
198.9931 283.0
539.7214 283.0
573.3213 283.0
147.1139 277.0
563.9675 276.0
439.2248 275.0
87.0449 272.0
283.9214 269.0
413.5747 268.0
163.0030 267.0
259.0964 265.0
306.8978 262.0
475.8300 262.0
255.0296 261.0
546.2205 260.0
423.1508 258.0
448.2025 257.0
98.9875 255.0
220.1095 255.0
179.0222 254.0
423.6610 253.0
346.6299 251.0
84.0458 250.0
400.6125 250.0
412.2038 249.0
371.6446 248.0
529.2271 248.0
481.2593 247.0
344.1984 246.0
561.3271 245.0
660.2655 245.0
282.9347 244.0
318.1794 243.0
273.0129 240.0
459.4779 240.0
382.2515 238.0
481.6809 238.0
87.0990 237.0
361.1916 236.0
363.6467 236.0
455.2435 234.0
273.1220 233.0
487.7658 233.0
506.2075 233.0
374.1762 232.0
546.7317 232.0
121.0850 231.0
111.0750 229.0
301.9347 228.0
369.1348 228.0
476.1658 228.0
514.2338 227.0
430.1875 225.0
498.6956 225.0
644.3288 225.0
394.6956 224.0
250.9386 223.0
110.5302 220.0
213.0098 220.0
497.2016 220.0
433.6657 218.0
564.2984 218.0
249.9926 217.0
305.9562 217.0
69.0710 215.0
545.7178 212.0
286.9316 210.0
562.2796 210.0
479.1775 208.0
276.8974 207.0
404.6352 207.0
452.2047 206.0
460.1915 205.0
342.2439 204.0
223.1595 203.0
483.1906 202.0
258.8913 201.0
475.2177 201.0
562.2653 201.0
152.9752 200.0
191.1203 200.0
121.0685 198.0
424.1011 198.0
552.2505 198.0
443.1600 197.0
494.7688 197.0
365.1227 196.0
231.1047 194.0
273.1595 194.0
384.2005 194.0
424.6237 193.0
425.6343 193.0
359.6252 191.0
506.7080 191.0
116.0729 189.0
246.9067 189.0
488.1849 189.0
632.3240 189.0
228.8983 188.0
286.1430 188.0
390.2035 188.0
446.1647 188.0
540.2168 187.0
341.1810 185.0
441.2072 185.0
308.0139 183.0
222.9018 182.0
439.7221 182.0
293.1181 181.0
347.1234 181.0
426.2473 181.0
55.0553 180.0
427.6517 180.0
441.7251 180.0
611.7658 180.0
399.2194 179.0
319.1909 177.0
430.7026 177.0
344.8799 176.0
379.1685 176.0
660.7676 176.0
187.1465 175.0
555.2241 173.0
257.0327 172.0
321.1161 172.0
343.1734 172.0
562.7744 172.0
201.1228 171.0
130.0679 168.0
169.0988 168.0
177.0300 168.0
398.1353 168.0
195.9978 167.0
488.2645 167.0
141.0678 166.0
333.1936 166.0
266.9189 165.0
301.1549 163.0
328.1649 163.0
258.1475 162.0
504.2462 162.0
645.2674 162.0
284.9286 161.0
439.2997 161.0
197.9942 160.0
305.2530 159.0
432.2622 159.0
433.8293 159.0
669.7812 159.0
359.1240 158.0
424.6705 158.0
642.3100 158.0
141.1018 157.0
144.1226 157.0
452.7087 157.0
480.1616 157.0
530.1940 157.0
473.6701 155.0
352.6492 154.0
460.6968 154.0
516.7368 154.0
659.7749 154.0
185.1009 153.0
530.7027 151.0
330.6592 150.0
339.2226 150.0
341.1697 150.0
415.2441 150.0
479.1765 150.0
181.0204 149.0
343.9554 149.0
701.3663 149.0
204.8878 148.0
212.1194 146.0
424.1774 146.0
563.7431 146.0
463.5126 144.0
345.1250 143.0
405.1270 143.0
455.6760 143.0
523.5639 143.0
136.9607 142.0
422.6795 142.0
552.7464 142.0
380.1307 141.0
505.2294 141.0
414.0800 140.0
527.2539 140.0
701.8048 140.0
341.0344 139.0
380.6545 139.0
530.5481 139.0
325.6131 138.0
519.8511 138.0
531.2014 138.0
422.6046 137.0
431.1886 136.0
440.2028 136.0
459.8128 136.0
467.7301 136.0
507.2398 136.0
563.2648 136.0
588.2603 136.0
630.3440 136.0
639.1847 136.0
351.1797 135.0
397.6393 135.0
451.6878 135.0
503.7689 135.0
565.2137 135.0
619.3052 135.0
300.1530 134.0
313.1081 134.0
318.9300 134.0
490.6588 134.0
501.2387 134.0
368.1160 133.0
645.7545 133.0
287.9437 132.0
411.4605 132.0
262.8764 131.0
303.9261 131.0
612.2580 131.0
251.1531 130.0
348.1642 130.0
443.7758 129.0
333.1674 128.0
359.2013 128.0
420.0774 128.0
645.3310 128.0
155.1192 127.0
544.3093 127.0
401.1216 126.0
545.3507 126.0
559.2848 126.0
564.2673 126.0
598.2903 126.0
401.1216 126.0
598.2903 126.0
559.2848 126.0
564.2673 126.0
545.3507 126.0
322.2165 125.0
377.1726 125.0
397.2646 125.0
702.3068 125.0
322.2165 125.0
377.1726 125.0
702.3068 125.0
397.2646 125.0
240.9119 124.0
272.9060 124.0
523.8868 124.0
654.2708 124.0
240.9119 124.0
523.8868 124.0
272.9060 124.0
654.2708 124.0
317.9309 123.0
365.9584 123.0
317.9309 123.0
365.9584 123.0
562.3181 122.0
562.3181 122.0
559.7743 121.0
704.3441 121.0
559.7743 121.0
704.3441 121.0
254.8947 120.0
352.1847 120.0
372.1561 120.0
461.1804 120.0
639.6915 120.0
372.1561 120.0
352.1847 120.0
254.8947 120.0
461.1804 120.0
639.6915 120.0
395.1941 119.0
395.1941 119.0
386.6289 118.0
531.3026 118.0
386.6289 118.0
531.3026 118.0
314.1972 117.0
385.2193 117.0
574.8121 117.0
385.2193 117.0
314.1972 117.0
574.8121 117.0
329.1759 115.0
453.4717 115.0
610.2699 115.0
651.2639 115.0
453.4717 115.0
329.1759 115.0
610.2699 115.0
651.2639 115.0
331.1378 114.0
368.1658 114.0
422.1557 114.0
515.5597 114.0
561.7523 114.0
661.3362 114.0
331.1378 114.0
515.5597 114.0
561.7523 114.0
422.1557 114.0
368.1658 114.0
661.3362 114.0
515.2249 112.0
560.2697 112.0
640.3109 112.0
515.2249 112.0
560.2697 112.0
640.3109 112.0
727.3168 111.0
523.2299 110.0
523.2299 110.0
345.1616 109.0
663.2968 109.0
345.1616 109.0
663.2968 109.0
437.2082 105.0
456.7514 105.0
522.2434 105.0
456.7514 105.0
437.2082 105.0
522.2434 105.0
357.6346 101.0
357.6346 101.0
END IONS
BEGIN IONS
TITLE=Spectrum 1GLYPHOS_VFADYEEYVK_1262_01.csv DRIFT_TIME=16.2629 16.21 16.3187 16.5623 16.5937 16.8172 16.2205 16.8222 16.6716 16.4757 16.4543 17.1126 17.2896 16.6607 17.1184 16.7704 16.8844 17.224 17.2271 17.0742 16.9072 18.1549 18.6378 20.1281 20.4257 17.6954 17.3055 18.1267 17.6775 20.2861 18.2223 20.4848 19.9883 19.2241 18.2215 19.6327 18.392 19.2469 20.0448 20.2512 18.477 18.8855 21.9444 22.9577 24.6752 23.6419 24.2889 27.2433 26.7099 27.0356 23.9635 24.9258 21.9303 29.8098 26.0374 25.8991 27.2488 27.3931 30.4469 30.7397 29.1861 25.8171 30.0735 33.1966 30.1452 38.7358 29.6085 39.7954 28.0148 31.9011 29.8271 29.172 35.114 30.706 29.9057 32.9425 28.0657 34.9648 32.5146 32.8039 36.8518 32.7752 34.3785 30.4956 35.0024 34.7274 41.0004 36.1275 27.3905 37.2394 29.0185 33.2588 21.911 32.0436 45.1272 44.3789 36.6307 37.7679 34.4746 33.1169 33.4414 21.7585 33.6499 45.4193 38.1404 38.2671 50.2517 45.6991 41.7054 40.7386 38.6728 44.4469 40.3859 36.2029 36.2803 40.3725 36.884 43.3182 44.2665 43.2268 40.5546 26.3321 40.8261 37.219 45.6032 51.0357 42.3209 43.9968 44.8256 45.4439 47.4848 37.0724 30.8938 43.2846 55.1787 43.0132 49.0811 48.7942 46.4449 46.0681 45.7313 41.9266 57.8529 30.0731 57.6372 56.093 28.9854 29.1776 28.8254 51.9478 55.2764 41.5988 46.8777 47.2721 45.6618 47.837 57.0449 32.1662 47.8903 56.5655 56.1809 30.2452 32.6792 32.0179 40.8673 48.1405 34.3723 34.6861 53.0825 34.4975 33.504 37.0739 33.6293 60.4325 39.7631 39.7634 31.8101 45.0821 37.8676 36.673 51.7245 36.1597 60.2433 38.1946 45.9257 36.2168 36.5018 26.7533 25.0956 52.4961 54.065 36.046 59.9311 36.096 61.1068 34.5322 34.5835 36.9871 37.0677 36.9372 37.3664 37.6197 36.7915 54.163 37.3368 37.7421 37.5054 38.1947 38.0759 37.9267 39.1769 72.9053 40.1077 39.913 42.8129 40.7953 30.7807 68.712 74.4698 42.3339 49.6203 43.9091 45.1211 44.0158 45.2812 42.9171 43.2106 48.2222 47.452 45.4438 43.1981 43.6738 45.8511 45.6374 45.2417 45.0089 49.5058 49.1345 49.805 49.3489 49.0256 77.6746 50.4084 49.9158 53.2249 41.4092 51.1675 41.3536 41.0986 41.3957 88.3206 41.306 41.1426 41.3329 88.5933 52.4293 52.6736 52.4149 85.5644 86.1292 51.067 50.8545 55.7691 55.1025 88.6055 55.4843 54.5106 51.9991 52.875 53.0251 95.0722 58.5099 57.8898 59.7561 60.4972 96.2548 96.9902 99.4895 102.0836 66.4924 66.3707 67.7999 65.1125 64.1705 111.1731 69.2079 69.237 68.4709 73.7043 72.2264 72.3861 121.9109 124.8279 125.2186 121.9306 129.6158 133.7429 132.209 139.7953 136.9542 135.9723 
PEPMASS=631.803
CHARGE=2+
55.0547 201.0
69.0689 287.0
70.0642 371.0
72.0799 2296.0
84.0798 315.0
86.0945 5181.0
87.0431 341.0
87.0981 403.0
89.0587 916.0
104.0710 211.0
110.0703 551.0
116.0697 142.0
120.0786 4201.0
121.0632 376.0
121.0817 429.0
122.0797 2516.0
123.0815 185.0
129.1009 475.0
130.0847 265.0
132.0801 183.0
133.0840 1068.0
136.0746 905.0
137.0793 125.0
143.1156 168.0
144.9882 226.0
145.0950 1216.0
147.0793 189.0
147.1104 433.0
149.0963 135.0
157.1316 225.0
158.0888 266.0
159.0166 372.0
159.0897 693.0
160.0905 141.0
165.0896 313.0
169.1314 122.0
170.0576 308.0
173.0879 483.0
175.1159 1570.0
176.1194 155.0
177.1103 283.0
178.0522 467.0
179.0226 184.0
191.1155 262.0
194.9934 484.0
196.9901 222.0
197.1256 169.0
199.1776 2488.0
200.1386 138.0
200.1799 367.0
205.0209 125.0
206.0272 168.0
210.0233 153.0
212.9760 181.0
214.9131 232.0
215.1377 126.0
219.1454 2182.0
220.1494 316.0
227.1713 648.0
228.1734 147.0
230.9878 306.0
232.9279 268.0
235.1384 120.0
246.1788 413.0
247.1406 521.0
247.2032 513.0
248.1411 133.0
248.2064 116.0
249.9840 443.0
251.0992 286.0
252.1052 261.0
253.0905 184.0
255.1432 129.0
256.0368 237.0
259.0911 257.0
265.1155 168.0
268.0003 112.0
268.1614 267.0
271.0996 450.0
272.1216 262.0
272.1707 322.0
273.0080 1888.0
274.0154 384.0
274.9435 295.0
279.9524 107.0
281.1021 130.0
284.1902 132.0
286.1333 552.0
286.9304 232.0
287.1338 176.0
287.9332 118.0
289.9782 311.0
290.6563 117.0
291.0278 173.0
291.2280 769.0
292.2399 111.0
293.1085 335.0
300.1686 112.0
300.9109 109.0
307.0047 1705.0
308.0040 257.0
308.6378 124.0
309.0031 170.0
310.2121 427.0
317.0742 464.0
319.0741 391.0
323.2196 170.0
328.2208 369.0
330.1316 133.0
332.9048 374.0
334.0450 119.0
334.1362 228.0
334.8974 109.0
336.7912 118.0
338.9823 186.0
342.9310 249.0
344.9548 190.0
347.1627 296.0
347.9387 120.0
350.1230 182.0
350.9117 349.0
352.1315 146.0
352.9108 151.0
354.8046 321.0
357.1705 170.0
357.2060 142.0
357.9726 337.0
365.9514 151.0
367.1331 207.0
368.1177 156.0
371.1811 137.0
372.8146 249.0
375.6684 145.0
375.9828 159.0
381.2439 282.0
383.0021 250.0
385.1436 462.0
386.1463 150.0
392.9353 199.0
393.9469 256.0
394.9349 155.0
396.8280 503.0
397.2550 393.0
397.6373 110.0
398.2527 137.0
399.2517 244.0
400.6097 112.0
403.6272 290.0
404.1309 177.0
408.1293 248.0
409.2388 601.0
411.8455 183.0
411.9574 175.0
412.9400 251.0
413.9421 109.0
416.9062 146.0
417.2362 348.0
418.1789 139.0
418.9029 214.0
422.1504 347.0
423.1507 132.0
424.0871 137.0
426.1850 112.0
427.6499 136.0
429.8550 379.0
430.9334 269.0
431.1840 108.0
432.6550 299.0
433.0375 182.0
433.1562 111.0
440.1917 107.0
441.2075 118.0
443.1757 159.0
446.2259 199.0
447.7122 222.0
448.2164 161.0
451.6273 121.0
453.8671 164.0
454.1927 126.0
454.6630 225.0
454.9499 134.0
455.1711 173.0
458.2162 244.0
460.1905 190.0
471.8742 183.0
473.1646 210.0
473.6638 128.0
475.8197 107.0
476.8496 120.0
476.9504 272.0
478.9478 194.0
479.1675 146.0
479.1684 273.0
482.6954 260.0
484.2096 140.0
485.1471 276.0
485.6540 138.0
487.6705 161.0
488.1757 114.0
490.7089 288.0
491.2068 131.0
491.7103 140.0
495.7030 102.0
496.9395 130.0
497.6738 434.0
498.1663 243.0
498.6654 137.0
500.6535 138.0
504.7074 528.0
505.2132 261.0
506.2022 135.0
511.2530 280.0
513.7125 380.0
514.2159 144.0
516.7480 204.0
528.2083 197.0
529.8610 126.0
537.1695 266.0
538.2784 304.0
539.7025 137.0
546.2555 155.0
548.2389 222.0
552.2269 188.0
553.2450 137.0
553.7542 149.0
554.2589 224.0
554.7620 174.0
560.2618 433.0
560.7597 236.0
561.2467 151.0
565.7016 110.0
566.1939 105.0
568.2666 129.0
570.2540 640.0
570.7501 370.0
571.2553 136.0
602.2731 261.0
602.7752 147.0
603.2808 145.0
603.7968 275.0
604.2978 169.0
608.2118 443.0
612.2845 338.0
612.7777 223.0
625.2941 258.0
625.6260 144.0
625.7959 201.0
625.9596 250.0
626.2961 118.0
631.2980 591.0
631.3308 720.0
631.6366 528.0
631.9686 434.0
632.3050 168.0
632.3305 363.0
634.2939 966.0
634.7999 703.0
635.3031 274.0
642.3462 2112.0
643.3509 849.0
646.2773 207.0
646.7857 182.0
661.3081 126.0
661.8193 119.0
667.3264 189.0
681.3047 168.0
681.8106 161.0
689.8217 451.0
690.3250 350.0
690.8173 181.0
737.3094 159.0
746.3685 355.0
746.8636 299.0
747.3620 248.0
747.8439 140.0
755.3132 397.0
756.3247 149.0
757.3673 291.0
771.2666 184.0
781.8828 194.0
782.3808 158.0
796.8637 216.0
796.8770 229.0
797.3741 223.0
830.3750 286.0
832.4088 295.0
832.8995 291.0
833.4128 167.0
853.4146 184.0
853.9189 238.0
854.4185 123.0
945.4014 345.0
946.4198 212.0
1008.4775 331.0
1009.4710 209.0
1016.4411 474.0
1016.4420 547.0
1017.4485 344.0
1040.4900 205.0
1041.4901 152.0
1107.5373 228.0
END IONS
BEGIN IONS
TITLE=Spectrum 1GLYPHOS_VLYPNDNFFEGK_1442_01.csv DRIFT_TIME=16.517 16.4467 16.7189 16.6034 16.456 16.3708 16.9246 16.1985 16.889 16.5893 16.2597 16.7303 16.6385 17.2839 16.8048 17.2406 17.0232 18.2074 18.295 16.2439 18.736 20.2768 17.1905 18.2258 20.6283 20.6754 18.1522 20.043 21.6106 19.9562 19.0112 20.9727 24.8008 21.491 24.6678 24.362 24.397 28.1965 27.981 24.6199 25.4181 23.3242 26.0857 24.5327 27.1635 27.0847 25.721 27.8154 28.4905 31.107903 31.228203 28.3173 25.951 28.4565 28.142 30.0402 28.5728 32.7882 31.703499 39.2138 33.4643 29.9245 30.2475 29.5271 30.1432 29.2888 30.7397 31.8838 33.1724 34.6711 32.7032 40.8226 31.064598 36.7121 34.2209 38.4414 27.6018 40.4223 44.8887 46.0236 44.8383 45.1224 26.3211 37.382 41.0317 45.7708 33.6144 39.0093 41.8985 44.6429 39.2706 44.6362 41.2312 41.0468 47.0481 46.1189 42.375 41.7794 38.3322 32.2878 45.2504 45.0958 44.8653 47.2111 49.5669 52.636 49.0159 52.198 46.3089 51.9606 28.8382 56.5496 55.7664 58.9602 51.1271 35.2449 53.1102 34.1332 61.8934 62.0854 54.0586 37.3939 53.8561 65.054 38.7858 36.9224 36.8644 64.2997 39.0223 62.8542 38.6804 63.413498 36.5784 36.653 26.0333 66.9082 38.5988 38.1239 66.7389 66.6919 38.1763 38.8357 34.7395 39.9732 36.7241 36.9846 63.2677 61.8341 38.6816 36.0676 38.9602 37.5675 37.0687 37.6674 28.8934 40.8513 39.0913 72.0974 39.851 71.0269 31.968903 41.2547 29.5642 41.187 30.3771 29.9708 43.0132 40.0201 32.1478 29.7377 30.1212 40.7541 40.5669 40.3085 40.351 29.6906 41.3315 42.0003 31.2603 31.2695 29.7881 41.3902 42.3738 42.0925 42.058 41.9738 42.4752 42.1174 42.0486 42.193 48.459 48.2912 71.159 49.0036 42.2815 49.1006 49.377 79.2737 92.882 45.1096 46.0479 40.2149 74.8425 46.1509 67.8665 32.5787 44.2859 31.4399 44.4471 42.0906 33.2 75.5686 32.2781 32.6202 75.7702 33.8733 41.3902 42.6395 47.0753 46.7378 46.6943 41.989 46.1549 42.168 46.9939 44.0307 41.1609 42.845 70.268 42.8848 38.1447 43.9138 35.8748 43.9252 35.4525 37.3206 44.4032 39.2755 38.9268 43.0551 43.9596 44.6485 43.8108 75.7094 35.4273 43.7347 44.3454 44.9174 35.3357 45.624 36.729 36.7232 37.2287 45.2681 73.4014 34.6483 45.1769 34.5723 34.6007 45.8842 74.7916 34.9812 34.2451 48.6345 47.444 47.6011 49.8248 35.184 49.8445 49.6939 37.6207 37.0608 47.3161 35.5992 49.2777 49.1404 44.3739 84.1279 43.1965 35.2038 82.7552 35.8417 49.3829 48.8332 35.3865 35.5755 35.45 36.0716 35.271 34.6672 36.2123 35.1652 49.3965 36.7965 36.4498 49.2615 103.1074 49.7928 47.6641 54.4445 48.4105 48.0834 47.7822 48.2493 50.7493 35.9385 35.9785 35.8092 49.0957 49.1737 49.1817 49.1764 48.9375 37.0782 48.9556 37.6845 38.7521 49.4867 48.9605 89.3904 48.2607 89.4168 41.5538 41.4441 35.7927 53.1501 53.2132 85.6422 86.2322 41.8009 39.6342 39.0415 93.9289 51.3637 51.9328 51.0533 52.029 40.6212 52.0563 41.2162 40.8815 40.8221 41.3093 55.5948 54.7848 41.3879 41.215 92.5663 59.6365 53.6086 54.608 110.8605 54.9932 41.2535 41.0133 55.218 40.288 55.4903 52.1918 56.2042 39.7809 55.5772 40.263 40.569 55.7335 41.7911 52.9321 55.1817 41.5016 53.9069 41.2292 57.87 54.6936 57.8304 56.1041 42.3039 41.2809 41.3059 41.358 55.1761 46.4791 44.3883 44.295 99.2001 44.755 54.8341 54.9934 55.0265 54.3444 55.4517 45.7388 44.3301 55.9239 89.6016 43.1346 43.0089 43.1188 43.105 55.2511 43.3509 43.3673 55.608 57.1837 57.0099 56.9525 58.6901 59.7539 60.109 58.9982 48.1873 48.29 58.3065 49.0918 58.5082 48.0092 60.9173 103.5705 47.9241 46.7908 96.466 59.7489 92.9881 92.3067 97.0603 61.7391 46.7638 62.4845 62.1472 60.6736 60.385 60.6814 58.8706 58.6036 91.3464 49.6679 62.2143 49.2567 62.8803 49.7312 49.7547 63.1081 98.0482 50.1866 64.1294 48.8489 97.7112 62.5521 63.1603 101.3451 57.2858 61.3241 59.0816 93.6231 102.7431 49.9468 61.9071 49.7822 49.0322 61.9074 49.2185 62.3914 60.3145 49.2265 63.4327 49.4414 62.6384 94.556 95.4939 100.644 99.3872 97.529 97.885 64.934 64.0528 64.8693 65.4502 65.5194 65.5859 65.4137 64.7856 107.0686 65.6372 65.478 65.9565 73.4531 72.1672 72.0626 71.793 71.7082 107.112 107.9699 112.1984 112.2582 109.4385 109.5702 110.416 110.4525 71.7331 71.2296 78.3833 74.2736 76.1051 76.0409 76.2351 75.9035 77.1975 77.2788 77.4071 77.0732 117.3956 82.887 83.122 83.7703 82.4912 128.9688 127.7632 128.0497 127.3927 124.5667 123.8268 124.2499 87.9447 88.7668 88.2592 87.837 132.052 135.6913 135.5705 135.9908 135.6434 152.9671 146.2405 148.0171 148.2862 163.2231 162.4429 158.7141 164.5572 153.1241 156.7772 151.9269 155.0741 173.7619 
PEPMASS=721.8535
CHARGE=2+
55.0564 208.0
70.0675 1187.0
72.0830 3701.0
73.0872 178.0
84.0458 209.0
84.0834 230.0
86.0978 8133.0
87.0458 309.0
87.1017 619.0
89.0611 627.0
110.0303 671.0
110.0751 460.0
119.0499 152.0
120.0836 471.0
122.0845 260.0
129.1077 547.0
133.0899 710.0
136.0792 8824.0
137.0833 868.0
140.0465 177.0
143.1219 695.0
144.9975 335.0
147.0475 153.0
147.1169 374.0
157.1397 244.0
159.0251 221.0
165.0950 183.0
171.1163 615.0
173.1319 165.0
175.1245 1619.0
177.1166 307.0
184.1127 153.0
185.1697 5896.0
186.1293 194.0
186.1751 868.0
195.0025 1228.0
196.9994 405.0
199.1859 4383.0
200.1906 719.0
201.1305 488.0
204.1402 1879.0
205.0295 841.0
205.1408 161.0
212.1098 355.0
213.1649 4714.0
214.1667 741.0
214.9267 145.0
223.1136 2668.0
224.1152 390.0
227.1817 2102.0
228.1830 330.0
229.1304 139.0
232.9341 126.0
233.1341 319.0
234.1366 153.0
235.1469 429.0
239.1227 134.0
239.1812 130.0
242.1579 442.0
247.2092 354.0
249.1690 535.0
251.1083 690.0
252.1183 126.0
255.0378 340.0
255.1161 189.0
257.0310 142.0
261.1331 234.0
262.1263 158.0
263.1438 149.0
271.1805 135.0
273.0167 117.0
273.2287 108.0
274.9589 530.0
277.1636 135.0
283.1488 171.0
284.2025 187.0
286.9450 137.0
288.2115 332.0
291.2391 672.0
292.2413 151.0
296.2045 1048.0
297.2101 224.0
299.1749 316.0
301.1644 104.0
301.2356 119.0
303.2189 119.0
307.0203 194.0
310.1879 111.0
313.1960 193.0
314.2170 1722.0
315.1768 431.0
315.2215 323.0
327.1388 459.0
328.1380 147.0
331.2108 500.0
332.2179 129.0
333.1866 802.0
334.1925 130.0
334.9912 110.0
340.1802 120.0
346.1829 323.0
350.1808 474.0
351.1821 104.0
364.1955 288.0
369.2235 117.0
371.2536 151.0
375.1710 118.0
376.2356 788.0
377.1580 130.0
377.2377 173.0
403.6453 238.0
412.2646 195.0
414.2426 138.0
418.2510 139.0
424.1668 155.0
430.7053 133.0
431.1550 180.0
432.6718 128.0
435.2807 473.0
436.2754 134.0
441.1880 443.0
441.2304 125.0
442.1839 160.0
449.2882 249.0
454.2119 258.0
454.6904 252.0
455.1877 120.0
459.2759 422.0
460.2058 283.0
460.2744 142.0
460.7104 121.0
463.2671 286.0
473.1887 300.0
473.6913 162.0
476.5321 130.0
477.2754 201.0
477.7249 152.0
478.2223 112.0
480.2603 885.0
481.2616 270.0
482.7492 227.0
483.2557 138.0
485.1685 261.0
485.7205 163.0
487.6950 229.0
488.1962 111.0
490.2217 192.0
491.1990 202.0
493.2201 155.0
496.7013 106.0
497.1748 126.0
497.6898 358.0
498.1893 215.0
498.6856 144.0
501.5718 150.0
503.7618 115.0
506.2199 218.0
506.3259 672.0
506.7233 138.0
507.3269 254.0
508.8669 111.0
513.7351 259.0
514.2158 103.0
514.2419 164.0
515.2368 167.0
515.5694 108.0
516.7713 213.0
517.2351 137.0
518.8639 130.0
519.5227 195.0
519.8590 186.0
525.2492 239.0
525.7404 1072.0
526.2380 668.0
526.7377 221.0
526.8589 117.0
528.2275 227.0
528.7245 169.0
529.8895 188.0
530.2215 166.0
532.1728 104.0
532.7062 103.0
534.2494 9182.0
534.7517 6699.0
535.2531 2768.0
535.7530 784.0
536.2604 236.0
538.1915 264.0
538.6912 160.0
539.7239 166.0
539.8278 196.0
540.3260 126.0
543.2385 176.0
546.2732 372.0
546.7411 151.0
546.7768 201.0
547.2792 126.0
548.3662 122.0
551.3462 236.0
552.2565 164.0
552.7671 115.0
553.1616 142.0
553.2890 129.0
553.7803 110.0
554.2037 107.0
555.5386 133.0
555.7564 279.0
555.8724 112.0
556.2597 166.0
557.7270 104.0
558.2027 124.0
560.2590 273.0
560.8864 163.0
561.2136 133.0
561.2561 136.0
562.6070 131.0
562.6608 115.0
563.1764 108.0
564.2868 341.0
564.7814 297.0
565.2459 654.0
565.7036 430.0
565.7470 385.0
566.2061 257.0
566.2544 150.0
566.7239 126.0
569.7377 207.0
570.2658 119.0
571.2319 243.0
573.6954 165.0
574.5936 343.0
574.7308 404.0
574.9251 258.0
575.2371 336.0
575.2653 165.0
575.6008 124.0
575.7200 148.0
576.6187 135.0
576.9618 137.0
578.2760 132.0
578.7006 265.0
579.2076 184.0
579.7064 126.0
581.2854 171.0
582.5776 142.0
583.2993 463.0
583.7943 321.0
584.2920 135.0
585.5917 122.0
586.7207 112.0
587.2405 318.0
587.5799 311.0
587.9115 227.0
588.2358 375.0
588.2569 573.0
588.5687 174.0
588.7302 244.0
588.8930 189.0
589.2269 174.0
589.2475 159.0
589.2521 204.0
589.5606 129.0
589.8958 128.0
590.3201 160.0
590.6610 181.0
590.9899 136.0
592.2697 534.0
592.5679 147.0
592.7722 337.0
593.2702 198.0
593.3012 122.0
593.6341 146.0
593.7563 141.0
594.5847 127.0
595.8179 109.0
596.3200 131.0
597.2391 146.0
597.3496 774.0
597.7470 142.0
598.2460 193.0
598.3501 229.0
598.5796 155.0
598.7769 179.0
599.2899 135.0
599.8946 196.0
600.2297 198.0
600.5627 102.0
600.8959 251.0
601.2252 237.0
601.5533 172.0
601.8906 165.0
602.2150 163.0
606.7824 138.0
606.9167 181.0
607.2436 152.0
607.2759 465.0
607.4061 353.0
607.7793 364.0
608.2698 202.0
608.3564 167.0
608.7740 130.0
611.2453 565.0
611.7441 483.0
612.2486 181.0
612.7962 117.0
613.8852 118.0
614.2383 128.0
614.5657 111.0
615.7837 5267.0
616.2851 3981.0
616.7887 1769.0
617.2895 619.0
617.7763 188.0
619.9112 140.0
621.2732 146.0
621.5953 103.0
621.9249 122.0
625.3027 166.0
627.2358 293.0
627.3306 538.0
627.7411 230.0
628.3329 178.0
631.3296 149.0
631.6617 215.0
632.8937 107.0
634.0219 125.0
634.3362 191.0
635.3685 1049.0
636.3654 382.0
638.6357 118.0
643.9635 149.0
644.3044 135.0
645.3542 150.0
646.2113 711.0
646.7166 384.0
647.2264 171.0
647.7866 142.0
649.6363 110.0
650.7762 147.0
653.9549 140.0
654.2924 158.0
654.9411 126.0
655.2827 134.0
655.3393 140.0
655.8365 142.0
656.9530 148.0
657.2830 113.0
657.4095 128.0
659.3847 156.0
661.7826 183.0
662.2720 138.0
663.4727 188.0
663.7957 127.0
663.9741 219.0
664.3019 240.0
664.3324 158.0
664.6327 144.0
664.8376 154.0
666.2531 168.0
667.3352 205.0
667.6120 159.0
667.8370 411.0
667.9314 193.0
668.2680 146.0
668.3369 323.0
668.6297 199.0
668.7266 155.0
668.8363 164.0
668.9603 223.0
669.0916 120.0
669.2846 153.0
669.3408 179.0
669.7501 132.0
669.8334 158.0
670.2548 116.0
673.3221 114.0
673.9741 132.0
674.2949 150.0
674.6311 125.0
674.8228 173.0
677.3311 111.0
679.9685 118.0
680.3310 252.0
680.4138 129.0
680.6707 182.0
682.3724 354.0
682.7067 351.0
683.0461 215.0
686.2980 128.0
686.7948 114.0
687.6786 135.0
689.9833 111.0
691.2708 111.0
692.3239 150.0
692.9933 536.0
693.3316 607.0
693.6635 500.0
693.9952 290.0
694.2863 133.0
694.3287 186.0
694.6501 111.0
694.7992 136.0
695.3202 175.0
695.8172 113.0
696.3007 121.0
697.3233 139.0
698.8731 168.0
699.3520 107.0
699.8533 129.0
703.3760 258.0
703.7087 352.0
703.8190 222.0
704.0428 277.0
704.3305 168.0
704.3895 121.0
704.8528 143.0
705.5115 130.0
705.7061 130.0
706.0292 109.0
707.3279 164.0
707.3606 119.0
708.3304 126.0
709.3349 172.0
710.4505 118.0
711.8796 334.0
712.0351 117.0
712.3806 252.0
712.8780 158.0
715.8769 174.0
716.3899 380.0
716.8865 270.0
717.3449 156.0
717.8520 104.0
718.2978 197.0
720.3767 766.0
720.3812 372.0
720.7068 571.0
720.8800 337.0
721.0429 321.0
721.3779 172.0
721.3815 184.0
721.4171 295.0
721.7090 130.0
721.9054 178.0
722.3679 126.0
722.4032 675.0
722.4119 114.0
723.3680 149.0
723.4175 517.0
723.8205 123.0
723.8624 139.0
724.3346 209.0
724.3904 213.0
724.4105 250.0
724.7057 407.0
724.8950 2072.0
725.0405 447.0
725.3764 237.0
725.3945 1516.0
725.6955 160.0
725.8928 743.0
726.3566 406.0
726.7009 229.0
726.8804 615.0
727.0357 237.0
727.3880 272.0
735.3328 324.0
736.3255 189.0
741.3733 535.0
742.3855 262.0
750.4002 944.0
751.4022 461.0
764.9059 115.0
772.3716 211.0
772.8553 120.0
773.4159 927.0
773.9183 846.0
774.4176 457.0
774.9147 157.0
778.8808 149.0
781.4914 159.0
787.3853 320.0
787.8769 313.0
788.3744 176.0
808.4694 121.0
829.9637 1607.0
830.4612 1561.0
830.9584 740.0
831.4641 288.0
847.3536 262.0
848.3493 135.0
856.4091 657.0
857.4135 369.0
864.3718 484.0
865.4231 3140.0
866.4310 1562.0
867.4354 501.0
868.9076 158.0
869.4064 155.0
872.5054 111.0
884.9879 211.0
885.4767 1059.0
885.9757 1031.0
886.4773 455.0
886.9795 123.0
893.9964 1176.0
894.4911 1239.0
894.9900 621.0
895.5012 245.0
939.3958 111.0
950.5315 529.0
951.0305 587.0
951.5254 331.0
952.0317 163.0
964.4973 1946.0
965.5046 1218.0
966.4937 394.0
967.5150 146.0
970.4468 1242.0
971.4494 833.0
972.4421 235.0
986.0540 412.0
986.5542 454.0
987.0483 291.0
987.5425 135.0
1050.4729 306.0
1067.5020 3906.0
1068.5045 3010.0
1069.5045 1221.0
1070.5117 334.0
1078.6555 467.0
1127.5655 859.0
1128.5709 688.0
1129.5621 206.0
1214.5980 2397.0
1215.6017 1897.0
1216.6043 737.0
1216.6099 615.0
1230.5707 770.0
1231.5707 587.0
1231.5857 509.0
1232.5863 258.0
1327.6925 217.0
END IONS
BEGIN IONS
TITLE=Spectrum 1GLYPHOS_WPVHLLETLLPR_1472_01.csv DRIFT_TIME=16.3626 16.5805 16.2946 16.5288 16.8719 16.274 16.5145 16.3766 17.4747 16.7882 17.4297 16.8016 16.7544 18.2484 18.1751 18.9893 18.6579 18.4096 20.2787 20.3165 19.2795 18.419 20.5279 18.8374 19.9625 21.8589 24.5795 24.7908 24.493 25.322 27.9425 25.7208 23.4636 27.1649 25.9158 30.1833 28.3178 31.7612 30.7129 28.8305 34.7458 33.73 31.134201 31.8679 31.6039 34.0678 36.3727 32.4227 36.5582 32.3743 31.874298 33.5055 45.0536 33.1835 44.2175 40.957 40.9235 44.5842 44.9728 47.9642 46.9688 45.6747 51.7898 45.1563 44.3509 50.2179 50.2874 54.6707 50.2485 49.5608 53.5418 31.1335 31.2753 33.3511 32.6116 34.8289 34.8735 65.1842 34.3647 36.8603 65.5437 52.3143 38.9362 37.945 37.578 37.9439 66.7924 37.3374 75.2154 37.9899 67.6733 66.0467 39.4399 71.1379 41.0843 42.1957 70.3208 70.7346 41.3539 38.3465 42.5014 48.8214 42.0609 41.4698 41.374 40.2502 50.3564 50.2654 50.1416 50.6516 41.0999 40.6602 41.3024 45.9185 46.0212 46.504 44.2666 44.2879 44.314 63.2947 45.0678 44.9806 44.865 45.5596 44.7613 36.3342 44.8062 44.4586 50.7035 53.9266 50.7614 53.9214 46.1791 84.1504 46.3464 48.1152 88.8844 45.9898 54.5971 54.5901 53.8697 83.1427 48.2214 84.38 48.821 49.0073 83.908 48.8587 49.7437 49.1851 49.0933 49.6142 49.6667 97.6572 49.341 49.397 49.23 86.2119 58.3963 49.7779 85.1375 50.4706 50.3357 50.6332 57.7281 57.8371 58.0331 56.6974 52.0647 52.8714 51.5403 60.167 60.891 52.524 52.1982 52.5389 53.4854 53.7276 53.0813 53.4451 53.8052 54.2463 55.0959 55.6215 54.7478 55.9751 55.5988 55.3258 55.3057 56.668 54.7229 57.0884 61.2257 60.672 59.1674 58.336 59.8212 103.3685 58.3305 59.1493 60.235 59.0691 59.6437 60.1897 98.4355 66.4946 101.7508 66.9394 66.9029 103.8737 66.7513 67.2925 60.8515 61.089 60.6259 58.5831 59.1955 65.0878 64.8917 65.1414 64.6886 62.2915 62.4331 60.9752 60.7737 98.1241 60.4656 61.3402 98.1245 95.6292 98.0718 109.2143 118.1415 118.4277 120.0827 138.8143 139.9084 136.9358 155.3988 157.5536 157.7682 171.9114 166.2404 172.4403 
PEPMASS=737.4355
CHARGE=2+
70.0669 932.0
72.0833 755.0
84.0474 159.0
84.0843 329.0
86.0984 1625.0
110.0298 223.0
110.0747 1934.0
111.0776 204.0
120.0840 312.0
122.0856 944.0
129.1060 340.0
130.0696 898.0
133.0887 161.0
136.0796 984.0
137.0839 124.0
143.1221 145.0
147.1217 135.0
158.1002 190.0
159.0970 1501.0
160.1013 225.0
166.0660 171.0
167.0970 130.0
169.1396 347.0
170.0655 471.0
175.1246 1668.0
184.1229 135.0
185.1701 646.0
195.0028 250.0
197.0017 127.0
197.1304 111.0
199.1862 314.0
204.1415 194.0
205.0293 173.0
213.1655 378.0
214.9257 135.0
223.1611 627.0
224.1235 269.0
227.1792 154.0
237.1403 377.0
239.1265 484.0
251.1577 701.0
252.1575 132.0
255.1522 998.0
256.1532 802.0
257.1546 158.0
265.1349 258.0
272.1786 998.0
273.0190 110.0
273.1857 119.0
284.1457 604.0
285.1511 157.0
289.9964 103.0
296.2032 108.0
307.0197 551.0
314.2181 157.0
315.1808 113.0
327.1414 135.0
334.1983 839.0
335.2000 171.0
338.1970 255.0
350.2289 202.0
356.2009 107.0
364.2406 123.0
365.2098 426.0
366.2072 170.0
368.2427 125.0
372.1785 163.0
378.2250 327.0
383.2207 873.0
384.2210 232.0
385.2700 308.0
394.6746 400.0
395.1816 151.0
427.6808 249.0
428.1767 166.0
443.6745 281.0
444.1722 127.0
447.2801 268.0
452.1818 117.0
473.1859 132.0
475.2525 256.0
476.9780 124.0
487.2212 256.0
487.7085 180.0
489.1808 267.0
489.6797 151.0
493.2949 129.0
497.6956 107.0
498.3548 202.0
501.1957 123.0
503.2534 309.0
504.2568 154.0
506.2193 119.0
506.3225 218.0
513.7304 206.0
514.2418 137.0
520.2848 343.0
521.2818 201.0
522.7218 111.0
525.6414 118.0
528.2390 107.0
537.3358 205.0
538.1877 108.0
544.2176 234.0
544.7170 289.0
545.2131 126.0
546.3425 3241.0
546.8460 2061.0
547.3423 734.0
547.8479 264.0
553.2267 653.0
553.7271 450.0
554.2244 197.0
560.7530 361.0
561.2514 277.0
565.2492 158.0
565.7277 127.0
570.7116 231.0
571.2233 171.0
572.9667 201.0
574.7521 213.0
575.2308 111.0
583.2540 116.0
584.2375 186.0
584.7272 116.0
587.2521 117.0
588.2471 118.0
588.7447 102.0
595.8032 212.0
595.8771 349.0
596.3165 199.0
596.3789 258.0
596.7686 121.0
597.3631 131.0
598.7509 107.0
599.2737 145.0
599.4054 566.0
599.7554 108.0
600.8704 350.0
601.3742 216.0
601.8717 102.0
605.3714 135.0
611.2473 139.0
617.3572 276.0
617.7617 213.0
618.2502 189.0
618.3682 125.0
618.7618 136.0
625.2790 288.0
625.7682 276.0
626.2637 304.0
626.7665 308.0
627.2586 324.0
627.3329 200.0
627.7630 202.0
634.7616 363.0
635.2622 408.0
635.3688 389.0
635.4021 147.0
635.7648 176.0
636.3815 185.0
639.2760 387.0
639.7739 248.0
640.2684 153.0
644.4063 1398.0
644.9079 1073.0
645.4120 465.0
645.9127 173.0
646.2072 128.0
647.2760 111.0
655.8008 128.0
663.3934 206.0
663.8901 138.0
667.7840 261.0
668.2860 249.0
668.7731 164.0
669.2902 104.0
674.3037 103.0
676.7915 1076.0
677.2955 916.0
677.7950 458.0
678.2912 165.0
683.3151 144.0
683.8213 109.0
685.8294 180.0
686.3217 211.0
686.8200 128.0
691.3049 211.0
691.7971 183.0
694.2880 255.0
694.7939 157.0
699.8239 113.0
709.8448 229.0
710.3492 190.0
710.8524 116.0
715.8367 140.0
716.3483 123.0
716.3607 152.0
717.3453 114.0
721.8475 141.0
722.3547 157.0
722.8439 150.0
724.8588 407.0
725.3652 301.0
728.4488 487.0
728.4498 203.0
728.4512 500.0
728.9355 3425.0
729.4354 2946.0
729.4472 219.0
729.9358 1343.0
730.4371 457.0
730.8527 761.0
731.3594 698.0
731.8521 430.0
732.3360 488.0
732.8408 258.0
737.4474 1458.0
737.9494 1391.0
738.4530 682.0
738.9529 228.0
739.8593 2199.0
740.3602 1935.0
740.8470 1524.0
741.3478 1100.0
741.4087 954.0
741.8431 512.0
742.3479 227.0
742.4192 342.0
750.4090 257.0
762.2962 273.0
772.3757 177.0
841.5376 1920.0
842.5397 1010.0
843.5418 288.0
954.6274 1227.0
955.6311 685.0
956.6322 243.0
1091.6904 747.0
1092.6977 483.0
1093.6817 246.0
1190.7653 382.0
1190.7714 366.0
1191.7720 279.0
END IONS
BEGIN IONS
TITLE=Spectrum 1GLYPHOS_YEFGIFNQK_1145_01.csv DRIFT_TIME=16.2717 16.4999 16.6565 16.1608 16.3923 16.4165 16.7624 16.8152 19.3765 16.5345 16.283 16.5467 17.0421 16.4772 17.3782 17.0222 16.9401 17.4411 17.264 16.969 22.2855 18.3206 22.1332 18.1841 19.2619 20.4067 16.9868 18.5019 16.268 18.341 18.4402 20.8084 20.6785 19.6665 20.0481 21.6348 19.1136 21.412 21.1276 21.742 22.8597 24.2139 24.1056 24.1307 24.4721 23.935 22.2065 23.4991 24.699 26.0577 26.0062 29.6288 26.0283 26.0401 28.1354 29.047 26.1249 25.8349 30.2058 28.2758 29.6128 39.3961 30.4203 27.8656 25.7156 29.9175 30.132 30.9694 28.9739 32.9007 30.5368 31.8162 28.5917 34.6195 33.5864 34.0839 31.847198 33.6438 33.5814 33.4717 17.5281 32.8711 36.5729 33.5846 31.0677 33.6787 36.1032 32.4117 27.7728 33.5526 35.6194 21.6861 35.2195 32.8761 45.4429 31.5346 36.7465 37.3 39.8124 27.3474 39.0459 33.1013 32.7465 22.3397 37.1692 42.6597 37.9514 22.2177 24.766 41.8048 40.8499 41.8968 39.5951 45.8279 36.2743 40.3972 38.6001 36.7629 25.987 31.8288 43.7451 48.5288 40.3877 26.4558 38.0607 40.5731 40.9716 25.9955 28.2542 36.7568 40.7835 45.3862 37.201 43.1213 53.1556 43.0054 24.7847 46.5353 24.9001 27.1757 23.8918 25.5368 47.5901 36.4585 29.125 28.8211 42.2407 50.946 27.9837 30.9391 50.3037 50.8239 47.0205 54.2659 47.0839 54.1129 43.2468 47.311 53.8315 47.1456 28.0781 41.5986 54.2508 60.3937 29.3381 57.1314 29.1723 29.0446 29.315 22.9186 71.8258 30.8306 54.715 35.3723 32.2485 32.5871 35.2288 57.8973 34.4312 34.4572 23.3066 58.4785 33.4381 34.0252 34.3069 35.6591 37.2474 36.9754 32.9875 33.543 60.0547 36.9536 32.0145 35.2326 37.5372 37.3594 65.7603 38.0569 62.939 24.6789 38.8669 63.890503 59.3274 36.5017 56.0796 36.6221 76.2918 41.3716 24.8836 38.5012 38.7692 38.2795 26.1735 26.8247 36.8902 31.1138 34.879 35.0854 25.8054 26.0478 38.3742 26.0767 34.8884 26.6047 38.8847 26.6915 26.7548 67.905 24.9576 25.6851 36.6327 36.2917 36.6515 27.1701 26.9968 25.9933 25.9305 37.9781 26.5916 37.9384 35.8659 35.9396 36.1653 35.9192 35.6688 36.2429 36.5922 39.7379 39.7458 34.897 34.2607 35.6234 29.2492 28.8417 63.8872 39.6194 36.6876 36.4913 36.8874 36.7926 36.9507 38.9265 41.5619 41.7434 29.411 37.7575 29.5927 36.6756 29.2173 38.7595 37.3855 37.5198 37.2507 38.0267 38.0717 29.6593 29.6568 29.2391 28.8583 30.804 39.0326 39.8887 42.7106 34.6503 34.9748 34.4608 38.8735 42.6234 42.9642 42.1138 30.0019 39.2664 31.7248 43.7046 43.4085 43.2273 43.1767 74.0198 69.0367 30.1879 29.7296 25.8194 29.5339 34.386 39.9778 35.7772 39.309 39.3645 39.2777 43.2609 42.9046 40.8033 40.5227 40.5536 31.0952 43.2152 31.1055 42.8817 30.9379 31.154701 42.9407 31.059502 40.7262 34.3613 31.5934 44.0603 31.058601 44.4099 41.3234 72.5056 41.8134 44.3802 72.596 41.236 44.8649 40.9372 71.6049 40.726 40.7116 41.7667 41.8925 39.7146 39.5373 78.4171 39.5193 42.1835 39.5388 40.1951 78.3897 44.3254 45.0775 43.7572 31.913101 44.3198 41.5325 49.2973 41.8015 49.2835 41.8777 49.7281 42.1043 38.9928 42.3286 42.2059 41.1794 39.7053 39.9131 42.3088 39.9203 41.6728 41.1545 45.8387 45.1722 42.8694 43.0512 45.5019 44.64 38.548 39.7487 40.2603 42.1388 40.9099 41.105 41.0072 41.1806 45.7503 41.8567 42.5116 42.9084 42.5808 32.6604 32.5568 42.7146 33.0447 37.5432 37.3017 37.4621 43.4845 37.7972 37.6764 36.3257 73.3472 46.8893 41.2765 43.8812 43.2829 43.6745 43.4689 37.6639 44.4212 44.3341 44.9047 43.8429 43.4541 43.8642 39.1332 40.5534 40.1477 40.9146 45.0891 40.6024 44.6867 44.7086 39.3387 39.1589 73.9514 38.5281 76.0692 35.939 44.0383 50.0192 73.0137 44.0309 49.9403 82.2587 44.1172 44.8377 80.1795 38.5118 44.1223 48.819 38.9139 63.2499 44.319 37.9241 79.8163 40.7673 45.3863 39.9007 42.9346 42.9785 48.2149 48.5639 48.3396 47.254 48.8433 50.6181 49.2835 51.26 51.0881 51.7096 52.4088 54.0208 52.0567 94.5932 92.9782 52.8477 52.8042 88.6089 94.3002 92.8755 92.6551 90.7088 57.1342 57.0727 57.4873 57.6632 98.7203 98.0465 58.3965 97.0391 57.6597 59.7066 58.5114 58.9578 58.8238 58.8403 58.5138 59.1184 59.3494 60.2737 56.6216 56.5782 59.9536 60.0474 59.49 60.7472 60.5556 60.3998 60.9625 60.6935 60.373 60.4645 60.2297 61.3059 61.4371 61.2752 62.1627 62.7291 63.759796 63.785904 63.82 65.375 64.5979 63.601303 65.9388 65.79 64.8687 67.9038 66.1398 66.1325 66.0837 65.9878 65.8547 119.8699 121.1041 118.6517 111.651 116.4211 133.4525 135.4146 
PEPMASS=573.2875
CHARGE=2+
61.0407 296.0
70.0659 645.0
72.0829 278.0
80.0123 158.0
84.0453 316.0
84.0809 569.0
86.0969 1784.0
89.0602 342.0
98.9864 197.0
102.0552 301.0
110.0280 696.0
110.0724 374.0
115.0834 190.0
119.0501 203.0
120.0814 1904.0
121.0842 180.0
122.0815 1427.0
129.1027 575.0
130.0843 225.0
133.0852 352.0
134.9648 222.0
136.0755 8206.0
136.9625 193.0
137.0808 878.0
143.1168 277.0
144.9937 555.0
147.0444 204.0
147.1133 302.0
154.0066 200.0
157.1084 198.0
158.0938 163.0
159.0194 1122.0
163.0045 236.0
169.0949 156.0
175.1195 2499.0
177.1030 109.0
178.0552 272.0
179.0221 410.0
185.1060 185.0
186.1239 117.0
187.1441 198.0
194.9965 2149.0
195.9977 192.0
196.9940 1957.0
197.9981 134.0
198.9925 140.0
202.0885 361.0
205.0266 428.0
205.0975 146.0
211.1185 1127.0
212.1221 210.0
212.9763 159.0
214.1201 196.0
214.9169 784.0
228.1432 383.0
230.9905 288.0
231.1120 103.0
232.9289 474.0
240.1344 126.0
243.1100 215.0
247.1083 166.0
247.2091 111.0
249.1246 271.0
249.9862 191.0
250.9371 120.0
255.0277 211.0
255.1087 279.0
256.0367 275.0
257.0304 145.0
257.1605 270.0
258.0308 133.0
258.1440 741.0
258.9749 182.0
262.1211 187.0
262.8779 109.0
264.8710 139.0
264.9225 383.0
265.1181 5224.0
266.1227 883.0
267.1249 147.0
272.0600 124.0
273.0123 3429.0
273.1232 106.0
274.0143 327.0
274.9538 1118.0
275.1727 654.0
279.1480 136.0
282.9332 150.0
286.9338 476.0
289.9863 329.0
290.1430 156.0
290.6567 199.0
290.8962 155.0
291.0252 142.0
291.2316 115.0
292.9606 147.0
293.1124 2531.0
294.1153 487.0
304.8998 335.0
304.9439 158.0
306.8953 487.0
307.0095 713.0
308.0015 194.0
308.6430 239.0
308.8976 232.0
318.1785 336.0
324.9669 109.0
325.6152 124.0
328.1653 187.0
331.9169 206.0
332.9074 1694.0
333.9102 265.0
334.0563 129.0
334.1394 224.0
334.8451 367.0
334.9059 647.0
335.9884 233.0
338.9890 115.0
340.1374 144.0
340.1680 215.0
341.0286 171.0
342.1678 229.0
342.9421 149.0
348.1647 143.0
348.9770 119.0
350.9192 1742.0
351.9206 186.0
352.1374 298.0
352.6700 181.0
352.8576 272.0
352.9203 664.0
354.1806 129.0
354.8117 411.0
355.1639 417.0
355.2226 142.0
357.9749 181.0
359.1145 181.0
359.1986 148.0
359.6148 149.0
363.6394 220.0
367.6054 186.0
369.1337 141.0
372.1897 575.0
372.8234 238.0
376.6126 202.0
378.6352 142.0
383.0084 141.0
383.1524 108.0
384.1509 284.0
387.6459 225.0
389.2171 1671.0
390.2004 342.0
392.9442 522.0
393.1687 981.0
393.9479 278.0
394.1745 229.0
394.8763 171.0
394.9470 255.0
395.1759 142.0
395.9479 108.0
396.1306 128.0
396.8352 393.0
397.1300 217.0
397.2769 261.0
398.1303 119.0
401.2196 239.0
403.6354 1007.0
404.1394 494.0
404.6398 168.0
411.4704 159.0
415.1623 153.0
424.6385 207.0
427.2091 116.0
427.2238 291.0
427.6563 450.0
428.1605 214.0
430.6965 229.0
432.2261 153.0
432.6635 536.0
433.1641 204.0
433.8294 119.0
435.1987 190.0
435.7025 261.0
437.1845 170.0
437.6844 171.0
439.2208 221.0
441.2226 550.0
441.7220 223.0
442.1902 111.0
443.1899 173.0
447.2175 128.0
451.1861 165.0
451.6387 135.0
451.6668 147.0
452.2127 140.0
452.7132 236.0
453.1865 399.0
453.2096 131.0
453.2820 145.0
454.1682 117.0
454.1979 595.0
454.2126 197.0
454.2453 166.0
454.6745 612.0
455.0218 138.0
455.1829 310.0
457.1726 239.0
457.1962 157.0
459.4740 118.0
460.1947 846.0
460.6961 286.0
461.1974 148.0
463.1739 115.0
463.5078 123.0
465.1811 173.0
465.2078 109.0
466.1814 285.0
466.6764 147.0
467.8340 260.0
468.1664 156.0
468.1945 110.0
468.5028 103.0
470.1317 129.0
470.1790 141.0
470.2124 136.0
470.5131 174.0
470.8423 127.0
471.1975 146.0
472.1209 135.0
472.4547 143.0
473.1716 624.0
473.6719 547.0
474.1701 219.0
475.8247 282.0
476.1602 166.0
476.5237 465.0
476.8538 334.0
477.7169 229.0
477.8544 123.0
478.2134 124.0
478.6857 131.0
479.1698 255.0
479.6797 191.0
481.6820 304.0
482.1843 159.0
482.6695 272.0
483.1663 137.0
483.7215 166.0
484.2287 115.0
485.1541 580.0
485.6569 242.0
486.1546 107.0
486.2173 235.0
486.5542 195.0
487.2140 262.0
487.2356 210.0
487.6818 706.0
488.1831 418.0
488.6857 181.0
491.1999 295.0
493.1785 116.0
494.6763 146.0
494.7504 267.0
495.2511 158.0
495.5546 118.0
496.1953 204.0
496.5641 129.0
496.6935 174.0
496.8972 117.0
497.1636 272.0
497.6789 1086.0
498.1773 724.0
498.6801 258.0
499.6989 117.0
500.2019 249.0
500.8935 138.0
501.2315 156.0
501.5577 210.0
501.8899 162.0
502.5719 132.0
506.2073 362.0
506.7016 235.0
507.7504 119.0
509.9023 312.0
510.2379 201.0
510.5631 105.0
511.1860 216.0
513.7352 368.0
514.2451 226.0
514.7384 132.0
515.2185 120.0
515.6921 126.0
515.8965 131.0
516.2430 601.0
516.7524 945.0
517.2564 459.0
517.7519 149.0
518.3139 106.0
519.2571 269.0
519.5085 325.0
519.8456 285.0
519.9827 127.0
520.1813 244.0
524.5716 176.0
524.7044 277.0
524.9077 124.0
525.2048 142.0
526.1874 143.0
526.6985 141.0
527.2336 266.0
527.7404 197.0
528.2192 378.0
528.7231 261.0
529.2237 129.0
529.5612 180.0
529.6953 809.0
529.8757 379.0
530.1952 551.0
530.2129 348.0
530.5416 307.0
530.6964 285.0
530.8689 118.0
531.2039 121.0
532.5770 131.0
535.5440 172.0
535.6979 453.0
535.8830 162.0
536.1922 286.0
536.2512 156.0
536.2845 1879.0
536.7082 173.0
537.2486 347.0
537.2846 683.0
537.7168 465.0
537.7495 378.0
538.2170 341.0
538.2885 155.0
538.7135 182.0
539.2245 198.0
539.7168 332.0
540.2150 173.0
541.9226 1301.0
542.2549 1574.0
542.2741 252.0
542.5891 998.0
542.7096 136.0
542.9198 378.0
543.2680 139.0
544.3628 126.0
544.6953 442.0
544.7510 285.0
545.2243 248.0
545.5347 124.0
545.7101 147.0
545.7349 144.0
546.2602 2301.0
546.7184 1404.0
546.7616 1347.0
547.2236 974.0
547.2630 395.0
547.7253 470.0
547.9289 130.0
548.2369 723.0
548.7332 385.0
549.9243 106.0
550.2611 194.0
550.5951 276.0
550.7045 296.0
550.9277 216.0
551.2081 321.0
551.7171 203.0
552.2446 171.0
552.7473 132.0
553.7250 183.0
554.2257 123.0
555.2519 137.0
555.7431 295.0
555.9264 1086.0
556.2604 1712.0
556.5952 2013.0
556.7155 363.0
556.9296 1544.0
557.2610 959.0
557.5984 385.0
557.7114 123.0
557.7488 201.0
557.9275 174.0
559.7141 1108.0
560.2185 829.0
560.7293 485.0
560.8650 193.0
561.2068 210.0
561.2254 202.0
561.5455 113.0
561.9303 5256.0
562.2640 5263.0
562.6013 2798.0
562.7450 101.0
562.9394 984.0
563.2629 364.0
563.6069 202.0
564.2658 223.0
564.7674 124.0
564.9208 129.0
565.7121 1135.0
566.2134 885.0
566.7158 434.0
567.2147 141.0
567.5918 114.0
567.7461 106.0
568.2491 183.0
568.7374 575.0
569.2471 2813.0
569.7470 990.0
570.2311 121.0
570.6054 631.0
570.9321 792.0
571.2709 556.0
571.6016 294.0
571.7766 148.0
571.9355 144.0
572.2639 224.0
572.7534 167.0
572.9363 345.0
573.2711 374.0
573.2897 203.0
573.6028 248.0
574.2969 123.0
574.5978 150.0
574.7182 1163.0
574.7727 586.0
575.2292 318.0
575.2322 1079.0
575.2755 322.0
575.3376 194.0
575.7348 686.0
576.2591 296.0
576.3445 111.0
576.6071 1539.0
576.7367 125.0
576.7766 407.0
576.9413 1588.0
577.1843 281.0
577.2629 948.0
577.2777 621.0
577.3132 240.0
577.6138 268.0
577.7456 390.0
577.9449 129.0
578.2560 9250.0
578.7578 1746.0
585.7748 240.0
586.2650 196.0
586.7692 109.0
587.2356 121.0
607.2882 122.0
607.7815 156.0
608.2786 106.0
615.7896 440.0
616.2828 261.0
616.7912 129.0
636.7807 101.0
637.8046 124.0
645.2926 153.0
649.3652 387.0
650.3662 196.0
650.7833 199.0
651.2742 146.0
669.3032 401.0
679.3448 165.0
689.3601 161.0
690.3354 125.0
695.3139 279.0
698.8147 530.0
699.3137 500.0
699.8096 230.0
700.3288 155.0
706.3921 1501.0
707.3849 562.0
708.2974 105.0
708.3848 220.0
709.8224 123.0
710.8154 119.0
711.8164 129.0
719.8224 247.0
720.3177 341.0
720.8214 425.0
721.3214 309.0
721.8283 179.0
723.3083 121.0
723.8263 102.0
725.3206 127.0
725.8226 115.0
728.8320 1333.0
729.3272 1223.0
729.8343 655.0
730.3312 274.0
730.8300 121.0
738.3160 524.0
738.8149 362.0
739.3146 176.0
741.8369 186.0
742.3435 207.0
742.8435 154.0
750.8435 536.0
751.3440 517.0
751.8501 235.0
755.3456 123.0
755.8490 179.0
764.3551 277.0
764.8586 308.0
765.3483 140.0
784.8549 104.0
787.3569 165.0
787.8618 154.0
793.3586 286.0
793.8552 335.0
794.3574 236.0
794.8528 203.0
795.3576 185.0
802.3657 865.0
802.8559 796.0
803.3546 417.0
803.8622 143.0
853.4579 1513.0
854.4671 899.0
855.4632 259.0
883.4093 244.0
981.3992 444.0
982.4936 300.0
983.5024 272.0
END IONS
