BEGIN IONS
TITLE=Spectrum 1GLYPHOS_DFYELEPHK_1176_01.csv DRIFT_TIME=16.5173 16.4813 16.3994 16.1715 16.383 16.9007 16.0681 16.7062 19.2262 16.4919 16.1997 16.5152 17.3818 16.4906 16.8822 16.4499 17.3696 16.7661 17.2631 16.8826 22.1403 18.2772 18.1899 16.1511 20.4043 17.436 18.1876 17.5706 21.7975 18.0749 20.9337 19.8324 18.5236 19.3645 20.6753 20.1721 19.1207 19.3029 21.1165 23.0964 22.2786 21.1575 22.0649 24.1984 26.3842 24.2034 23.3266 24.2779 25.1609 24.8828 25.1911 24.3574 25.7327 26.2609 26.1007 29.1982 26.0181 28.4822 28.6825 28.9235 39.1755 39.72 28.3764 26.1972 32.2181 31.604301 29.1707 29.8494 30.84 30.8054 30.8118 32.1494 28.2522 28.4319 30.6618 30.8557 31.8624 33.6811 33.4931 33.6681 32.6931 41.8405 34.5862 31.3153 35.1259 32.0491 37.0332 35.3134 35.6341 27.3428 33.3508 45.3826 45.5245 37.5119 39.5084 29.8627 32.8763 32.6753 33.2515 41.3525 38.2192 38.0579 34.5692 37.7854 34.3692 38.853 39.4769 55.4577 43.818 49.2164 38.5242 36.7617 33.9085 35.6987 39.3148 44.2061 53.6274 39.8137 42.2897 39.0021 50.4826 45.0495 35.9896 44.3466 44.1514 43.0924 43.263 53.9543 48.7558 43.6663 50.6672 50.7154 47.2805 51.3859 45.957 44.708 42.8383 58.9586 49.4132 55.2193 48.9678 47.6665 72.1248 57.289 66.9646 62.0645 48.0847 61.9594 42.6975 60.3483 62.0168 48.1851 47.4702 53.831 47.0433 47.7427 75.6739 56.7186 78.2328 48.3819 64.658 64.0108 66.1626 65.3517 70.9007 83.3809 76.8944 80.5956 81.2534 81.788 84.3265 102.2268 103.0768 97.7894 106.7527 124.1169 125.4693 129.5659 135.2102 
PEPMASS=589.283
CHARGE=2+
61.0503 241.0
70.0761 463.0
72.0924 205.0
80.0246 373.0
84.0923 999.0
86.1096 630.0
87.0585 327.0
89.0726 1321.0
99.0016 176.0
104.0863 294.0
110.0434 1671.0
110.0871 475.0
120.0984 1330.0
121.0822 715.0
122.0996 2757.0
123.1026 183.0
129.1217 441.0
130.0837 229.0
130.106 215.0
133.1058 1582.0
134.9842 303.0
136.0955 4730.0
137.1 475.0
140.0656 146.0
145.0147 803.0
147.0995 277.0
147.1356 383.0
149.1169 149.0
152.9963 211.0
156.1015 141.0
159.043 1333.0
163.0275 195.0
165.1145 606.0
166.081 277.0
175.1102 365.0
175.146 885.0
177.1402 394.0
178.0801 332.0
179.0458 208.0
187.171 124.0
190.1133 194.0
191.131 144.0
193.1502 119.0
195.0239 2660.0
196.0334 230.0
197.0213 682.0
205.0534 753.0
206.0666 220.0
207.156 394.0
209.1494 194.0
211.1518 203.0
213.0357 185.0
214.9492 689.0
215.1705 160.0
217.1303 212.0
231.0257 189.0
232.9644 626.0
235.1414 7083.0
236.1459 1112.0
237.1447 125.0
247.2426 835.0
248.2495 134.0
250.022 331.0
250.9755 136.0
253.1684 352.0
254.0025 166.0
255.0654 219.0
255.1454 321.0
255.9962 115.0
256.0721 546.0
258.0731 210.0
258.1814 138.0
259.0121 131.0
261.0667 121.0
263.1429 677.0
264.1445 157.0
264.9595 530.0
265.1569 665.0
266.2032 307.0
272.177 115.0
273.0528 873.0
273.2625 115.0
274.0608 249.0
274.989 729.0
282.1808 148.0
282.9692 234.0
283.1801 282.0
284.2126 1186.0
285.2137 179.0
286.9764 337.0
290.0274 205.0
291.2747 1472.0
292.2769 268.0
293.1558 845.0
304.9407 122.0
305.9987 162.0
307.0547 1168.0
308.0538 152.0
309.0484 150.0
312.1935 294.0
316.9831 229.0
317.1308 140.0
318.969 111.0
319.1224 169.0
321.0969 191.0
325.0058 135.0
335.0003 132.0
335.3028 135.0
341.0838 108.0
342.2192 120.0
342.9898 255.0
344.9295 147.0
348.0248 148.0
348.8742 152.0
349.0135 113.0
349.9487 238.0
353.1367 152.0
355.1199 232.0
358.0215 123.0
361.0001 123.0
363.2651 348.0
364.2172 190.0
366.8913 284.0
366.9619 144.0
367.9632 474.0
368.9574 269.0
369.9656 167.0
371.1524 197.0
372.2343 119.0
376.0309 118.0
381.2786 3855.0
382.2823 863.0
382.9701 135.0
383.2923 110.0
384.9717 134.0
385.9779 146.0
386.9666 415.0
406.2645 116.0
408.9883 161.0
409.2245 238.0
409.9916 111.0
410.9847 529.0
411.2218 265.0
411.2256 183.0
411.2267 299.0
411.3538 358.0
411.9964 126.0
412.3298 391.0
412.9199 113.0
413.1761 213.0
413.3402 107.0
423.1417 539.0
424.1414 109.0
426.2255 294.0
426.995 258.0
428.9979 453.0
429.2368 321.0
447.3267 309.0
471.2589 239.0
474.9079 118.0
492.3277 424.0
493.3298 192.0
510.3421 377.0
511.3374 137.0
555.2956 127.0
573.4825 179.0
591.3736 1065.0
592.3966 514.0
593.4088 152.0
623.4407 534.0
624.4507 214.0
752.5079 809.0
753.5059 346.0
754.4783 139.0
812.4437 173.0
915.5892 675.0
916.5921 370.0
916.598 369.0
1055.5992 152.0
END IONS
BEGIN IONS
TITLE=Spectrum 1GLYPHOS_DYYFALAHTVR_1356.csv DRIFT_TIME=16.6173 16.6485 16.1042 16.4023 16.8392 16.2601 16.7323 16.6428 16.4357 16.4198 17.358 16.4866 16.9008 16.9016 17.5465 17.0869 16.893 18.1769 17.9456 20.1976 17.5164 20.3389 17.5927 18.3794 20.0447 21.1058 18.7843 21.0708 19.889 22.9253 20.6753 18.7979 20.3314 21.5406 20.2369 20.3535 20.0809 18.9046 19.3504 23.8079 22.3703 22.0382 22.4069 26.5515 24.0454 24.3413 21.9358 29.5791 25.7118 25.8065 28.0782 26.9728 29.6042 25.6232 25.8725 29.0744 27.945 29.2791 29.1385 31.1251 34.3305 29.3729 39.1074 29.0551 28.2444 31.4234 31.6917 31.375801 30.2573 34.6932 31.904999 31.2164 30.2607 36.6658 35.0039 32.9814 34.6034 37.4537 35.5941 35.6271 33.9628 33.4214 34.1116 36.5646 36.5958 36.0707 35.3992 34.0079 31.1572 45.1571 33.9169 47.0837 31.889801 38.9966 39.4285 34.1077 33.2686 33.1905 33.1878 39.1566 39.6883 55.246 39.4199 34.9202 44.0111 43.3152 40.9183 43.9802 38.8411 38.3966 38.283 43.8528 51.6959 46.4473 37.1702 38.3195 41.8168 39.6225 48.6108 43.8396 42.1672 39.3823 39.8216 40.1584 44.0795 51.3723 42.6132 51.3511 50.8017 50.2549 43.0212 51.8075 44.9692 41.7904 46.5896 44.1946 55.6932 52.7597 50.354 53.4453 57.9861 46.0833 55.4789 45.8181 52.9247 46.8371 48.9782 46.2423 47.0799 62.2503 51.298 55.0139 48.0749 53.2407 56.5369 57.1594 51.978 57.2162 47.3252 50.2435 57.1923 51.6475 58.2179 51.2196 49.9807 51.6024 51.9157 66.8059 52.7593 53.0241 62.6866 52.4879 54.6045 66.7546 71.9508 55.0286 65.4658 65.5185 57.822 69.1914 68.8364 57.1345 72.7574 77.2971 78.1948 77.9519 72.3615 71.6215 76.0211 77.0911 72.4259 63.7464 82.8753 77.4479 78.333 86.6938 87.4343 88.1024 88.9221 93.2776 93.3443 98.0604 96.5421 95.2877 95.7437 98.8021 105.0952 104.8543 103.7248 117.4407 131.1537 129.2669 129.2433 130.1439 141.2338 146.7432 146.2194 148.363 148.9969 155.6828 
PEPMASS=678.343
CHARGE=2+
70.0736 263.0
72.0905 1099.0
73.0379 171.0
84.0904 635.0
86.1073 2421.0
87.057 257.0
87.1116 162.0
89.0701 804.0
104.0829 472.0
110.0848 902.0
120.0959 883.0
121.0811 268.0
122.0961 4463.0
123.0994 254.0
129.1176 2238.0
130.1046 352.0
133.1025 707.0
136.092 6145.0
137.0959 553.0
143.1357 2469.0
144.0832 232.0
144.1403 254.0
146.0792 158.0
147.1323 704.0
155.1354 144.0
157.1533 166.0
158.1141 199.0
159.0396 237.0
159.1095 414.0
160.0466 116.0
160.1165 150.0
165.1118 201.0
169.1193 349.0
169.1554 148.0
171.135 567.0
173.1467 128.0
175.1401 1523.0
177.1314 196.0
178.0732 343.0
180.0565 228.0
183.1344 192.0
185.1505 135.0
191.1413 178.0
197.1893 164.0
201.1516 228.0
209.1334 306.0
210.0519 133.0
213.0057 177.0
214.9442 197.0
219.139 150.0
228.1603 181.0
229.1496 203.0
231.0199 305.0
231.1258 120.0
232.9593 167.0
233.1224 131.0
239.1448 270.0
240.1633 1092.0
241.1687 162.0
242.1802 317.0
242.2175 241.0
244.1229 155.0
247.2364 465.0
249.0331 126.0
250.0162 390.0
251.1328 5652.0
252.1367 1031.0
253.142 133.0
255.1375 173.0
258.1767 263.0
262.1697 298.0
263.1779 162.0
264.0154 113.0
271.2127 175.0
272.1935 157.0
273.0463 414.0
274.0547 826.0
274.223 242.0
275.2432 547.0
276.2469 116.0
279.1328 1050.0
280.1342 188.0
281.1357 306.0
283.1805 691.0
284.1819 157.0
285.1904 160.0
286.1793 118.0
290.022 188.0
291.084 155.0
291.2681 597.0
292.0706 205.0
296.237 188.0
297.1132 151.0
297.1969 128.0
299.2105 434.0
300.9504 252.0
307.0462 1624.0
308.0468 291.0
309.0448 231.0
310.2131 973.0
311.1786 406.0
311.3392 116.0
312.19 202.0
318.9665 191.0
322.2284 144.0
327.175 122.0
332.0131 134.0
334.1851 117.0
335.0623 597.0
337.0647 115.0
342.9847 190.0
343.1993 197.0
343.278 248.0
344.2295 126.0
344.9965 206.0
345.9997 151.0
347.996 158.0
353.0765 262.0
353.262 142.0
357.2242 117.0
358.0205 365.0
361.0011 115.0
364.0039 220.0
365.0127 111.0
366.0 335.0
370.2922 455.0
371.0428 152.0
371.2754 412.0
372.2847 102.0
375.2831 526.0
376.0337 310.0
382.2236 191.0
384.9706 119.0
386.9601 169.0
387.0453 361.0
388.0324 116.0
388.3391 396.0
393.276 190.0
397.1903 110.0
398.2975 114.0
401.3347 160.0
401.9804 153.0
402.2969 245.0
405.0605 170.0
408.2453 171.0
410.9861 162.0
418.9574 149.0
419.9862 245.0
421.9898 257.0
423.3114 223.0
426.0128 337.0
426.2443 161.0
428.9964 183.0
433.0954 218.0
442.2188 754.0
443.2242 203.0
444.0269 645.0
444.2605 184.0
447.0173 161.0
448.0063 127.0
448.2734 154.0
449.0748 507.0
449.2853 226.0
452.9796 167.0
459.015 125.0
459.9998 242.0
461.0224 144.0
467.1949 249.0
472.0232 102.0
477.0197 235.0
477.314 181.0
479.0225 144.0
480.0056 109.0
485.2142 253.0
494.3548 249.0
494.9852 108.0
495.3313 335.0
499.3251 123.0
501.0523 150.0
512.3607 883.0
513.3658 245.0
515.9898 401.0
517.3903 236.0
525.3471 637.0
526.3526 197.0
543.3579 163.0
555.3198 150.0
564.3267 125.0
566.374 205.0
567.3787 130.0
570.3696 122.0
573.0172 192.0
581.4072 147.0
583.4041 1494.0
584.4071 376.0
618.461 477.0
619.3436 334.0
619.4652 140.0
620.347 144.0
677.4261 186.0
679.5114 108.0
680.4806 588.0
681.487 329.0
696.4999 1053.0
697.5095 423.0
717.5403 222.0
767.5471 1853.0
768.5536 851.0
769.5575 273.0
831.5994 331.0
914.6405 1252.0
915.638 666.0
960.6507 650.0
961.6572 275.0
1059.7178 176.0
1077.7325 409.0
1078.7194 290.0
1116.7495 275.0
1117.7644 196.0
1187.8174 263.0
END IONS
BEGIN IONS
TITLE=Spectrum 1GLYPHOS_HLQIIYEINQR_1426_01.raw.csv DRIFT_TIME=16.6227 
PEPMASS=713.897
CHARGE=2+
61.0509 325.0
223.1916 6466.0
251.1918 6132.0
110.0896 5983.0
195.0286 3471.0
1176.8325 2835.0
361.2593 2490.0
379.2723 2325.0
1177.838 2111.0
935.6554 1834.0
822.5462 1703.0
175.1482 1440.0
1048.7563 1426.0
492.3789 1301.0
86.1113 1288.0
252.1967 1221.0
197.0266 1212.0
936.6511 937.0
823.5519 920.0
224.1962 919.0
205.0611 902.0
122.1025 893.0
1049.7548 883.0
255.0705 858.0
474.9303 788.0
530.3921 756.0
1289.9395 739.0
362.2587 738.0
1178.8368 734.0
659.4596 697.0
110.0469 652.0
242.1913 652.0
159.047 635.0
432.9009 608.0
1290.9417 567.0
380.2746 531.0
355.2943 517.0
307.063 514.0
274.9962 469.0
417.29 456.0
111.0925 443.0
136.0992 438.0
303.2268 410.0
493.3786 409.0
178.1654 407.0
605.4783 403.0
257.0672 399.0
72.0943 381.0
145.0163 379.0
286.9803 359.0
400.2614 357.0
464.3736 349.0
1159.8116 346.0
129.1247 340.0
273.0615 337.0
937.6554 330.0
61.0509 325.0
214.1946 321.0
70.0774 309.0
869.6021 303.0
143.1411 302.0
473.2262 297.0
1160.8236 289.0
1050.7662 274.0
201.1575 259.0
213.043 249.0
325.0098 247.0
475.2346 246.0
564.3618 242.0
255.1507 241.0
133.1073 240.0
580.4153 236.0
264.968 233.0
450.9196 229.0
1179.8436 228.0
824.5583 225.0
531.3952 223.0
600.9196 222.0
89.0737 220.0
476.9278 219.0
286.1963 216.0
256.0788 210.0
179.0492 207.0
660.4563 201.0
383.2271 195.0
434.8969 193.0
645.4403 191.0
498.829 189.0
304.9487 188.0
244.2041 180.0
84.0968 179.0
134.9864 179.0
717.4806 175.0
344.2343 168.0
214.9517 163.0
474.3576 163.0
870.6132 163.0
1158.8379 161.0
414.8846 158.0
232.9711 155.0
199.2161 152.0
497.0112 152.0
402.3158 150.0
306.9442 147.0
465.3794 145.0
259.017 144.0
688.4519 143.0
293.1608 141.0
476.8737 141.0
768.5738 140.0
185.1968 139.0
234.1678 139.0
258.0723 138.0
582.3617 136.0
196.0317 133.0
225.1601 132.0
415.1945 131.0
427.2752 130.0
189.0801 128.0
363.2628 127.0
206.0639 126.0
577.4878 126.0
181.0499 124.0
423.1567 124.0
381.2805 122.0
282.9807 119.0
335.0385 116.0
206.164 115.0
519.3644 114.0
356.2974 112.0
327.0082 107.0
438.208 107.0
418.2861 106.0
END IONS
BEGIN IONS
TITLE=Spectrum 1GLYPHOS_LLSYVDDEAFIR_1439_01.csv DRIFT_TIME=16.3538 16.5499 16.2332 16.4149 16.6617 16.0751 16.3407 16.2764 16.9118 28.2173 16.2177 16.9246 16.6691 16.2727 16.1803 16.3406 17.0117 17.4205 16.7309 16.8366 17.4276 17.4559 16.9165 22.2428 18.2855 18.3293 16.336 18.7434 20.729 17.8616 20.2595 18.2931 20.8367 20.0279 20.4085 18.1122 19.9456 22.3207 20.0781 20.0713 19.0118 19.3979 21.8294 20.9035 24.8025 21.2629 25.0455 24.2716 24.2904 28.0148 28.1043 24.4499 23.326 25.2598 23.4758 25.293 23.9849 23.9696 24.8075 26.9266 27.0162 26.2918 27.8785 28.1761 31.033401 28.2173 31.1069 27.0109 27.1784 25.4812 28.6661 28.9924 30.2791 32.1846 39.4736 33.3559 28.2256 29.9486 30.1179 29.4311 30.1931 30.633 29.2139 31.725502 32.7326 32.0488 34.9618 33.1667 33.4987 30.9069 36.7572 34.6428 38.1213 27.4348 40.3082 34.982 45.4712 44.977 45.1487 40.0739 28.256 33.3591 33.0091 38.3745 42.292 44.4647 38.7586 44.7595 38.7023 37.9274 38.4642 41.2677 45.58 37.6248 42.1612 37.5077 31.936897 39.6776 45.0215 32.9174 45.169 47.6355 46.3661 49.909 52.4572 52.0706 46.002 52.5656 48.7572 50.122 41.078 51.746 58.8282 57.0609 59.8569 59.2832 50.863 42.117 54.3778 67.8852 61.4773 61.6985 53.6091 53.4661 43.3898 54.1055 54.6026 64.8095 63.312897 64.4423 63.5559 61.8179 57.8849 66.3248 65.6238 48.4806 63.301804 62.7571 55.9181 56.1726 71.1186 71.8426 49.9582 72.604 93.4341 68.1655 75.0387 75.0118 72.3885 71.3655 70.3738 83.1474 72.9299 82.274 75.0118 74.4865 84.3648 103.199 103.9472 87.8041 88.3292 85.1619 85.895 93.4321 90.3629 113.1112 92.2817 93.3801 91.2943 91.3103 91.3779 98.2577 99.6249 101.7361 92.9351 92.1088 93.8201 101.2737 99.9142 96.3276 97.4073 98.8194 105.7493 110.447 113.0657 113.159 107.5051 110.8342 109.5379 109.2714 123.8579 128.3211 128.2335 130.9834 125.1227 124.9366 123.9049 124.633 125.3051 130.4747 133.2681 130.0529 136.3738 136.4953 134.7164 132.8155 156.7551 149.7185 149.1732 145.4352 160.5957 161.721 164.0148 161.3489 158.5032 155.8631 157.048 152.3461 152.3036 176.0326 
PEPMASS=720.8745
CHARGE=2+
55.065 215.0
61.0509 277.0
69.0819 152.0
70.0776 1394.0
72.0936 2991.0
80.0264 169.0
84.0594 202.0
84.0955 308.0
86.1109 7330.0
86.1113 123.0
87.0602 295.0
87.1142 509.0
89.0741 634.0
104.0895 146.0
110.0464 872.0
110.0915 505.0
115.1073 147.0
120.1011 467.0
121.0871 157.0
122.102 1413.0
129.1243 718.0
130.1086 228.0
133.1089 871.0
134.9869 133.0
136.0985 7719.0
137.104 792.0
140.0664 199.0
143.1418 597.0
145.0181 618.0
147.1384 359.0
157.16 165.0
158.1206 141.0
159.0462 537.0
159.1203 142.0
163.0309 159.0
165.1193 171.0
171.1434 387.0
173.1605 168.0
175.1503 2102.0
176.1526 236.0
177.1438 272.0
178.0827 150.0
179.0514 193.0
184.1381 154.0
185.196 5050.0
186.1553 225.0
186.2007 821.0
195.0298 2716.0
197.0274 955.0
199.2146 3930.0
200.2179 599.0
201.1588 1028.0
202.1631 184.0
204.1692 1525.0
205.0591 934.0
205.1747 204.0
206.0735 128.0
212.1401 374.0
213.0425 217.0
213.1956 3770.0
214.1972 665.0
214.9533 253.0
223.1464 2325.0
224.1538 348.0
227.2143 1893.0
228.175 120.0
228.2207 285.0
229.1611 222.0
230.153 146.0
232.9705 168.0
233.1708 295.0
234.1624 141.0
235.1838 409.0
242.1892 259.0
247.2497 335.0
249.2034 492.0
250.0301 125.0
251.1456 615.0
252.1556 124.0
255.0713 701.0
255.1538 231.0
256.0807 296.0
257.0695 301.0
261.1709 201.0
263.1822 175.0
264.9692 212.0
271.2236 113.0
273.0589 801.0
274.0632 103.0
274.9967 601.0
277.2061 131.0
283.1891 164.0
284.247 165.0
286.9786 453.0
288.2521 386.0
290.195 110.0
291.2823 662.0
296.2498 1030.0
297.2546 221.0
304.9505 186.0
304.9963 167.0
307.0602 810.0
308.0573 141.0
310.2303 157.0
313.2436 142.0
314.2616 1348.0
315.2217 386.0
315.2665 246.0
316.2242 111.0
317.1337 168.0
325.0057 144.0
327.1847 589.0
331.2599 382.0
333.0985 108.0
333.235 713.0
335.0416 124.0
340.2236 184.0
342.9966 140.0
346.2373 374.0
347.0235 188.0
350.2305 368.0
364.251 214.0
367.9984 165.0
369.2789 166.0
371.306 126.0
376.2893 411.0
377.214 145.0
377.2897 114.0
401.9978 119.0
408.047 129.0
409.0886 257.0
409.2506 133.0
412.3242 154.0
414.3037 187.0
418.3081 137.0
419.3189 128.0
424.2201 215.0
424.9167 136.0
427.2747 172.0
431.3369 204.0
435.3443 371.0
436.3473 125.0
441.2501 537.0
442.2482 139.0
442.9335 221.0
444.0298 425.0
446.0295 316.0
449.3547 154.0
459.3443 372.0
460.3448 102.0
463.3414 189.0
465.2839 131.0
468.2628 108.0
480.33 973.0
481.3313 207.0
484.9564 127.0
490.2717 130.0
491.2638 242.0
495.0037 164.0
497.0198 141.0
506.3943 554.0
507.405 207.0
508.9389 118.0
543.3102 164.0
551.4248 238.0
554.2944 135.0
560.3514 355.0
561.342 150.0
564.3639 310.0
571.3135 350.0
572.3162 149.0
580.418 204.0
581.3681 103.0
581.4292 172.0
588.3443 672.0
589.3404 293.0
597.4378 486.0
607.5048 248.0
608.4996 151.0
627.423 418.0
628.4267 226.0
635.4591 953.0
636.4678 366.0
645.4535 365.0
646.448 164.0
663.5786 146.0
691.4289 122.0
707.4318 176.0
709.4449 118.0
718.4066 281.0
719.4202 152.0
721.51 177.0
722.5087 530.0
723.5272 416.0
724.5013 198.0
735.4446 287.0
736.4234 166.0
741.4807 496.0
742.4818 260.0
750.5078 963.0
751.5121 424.0
752.4524 137.0
847.4719 207.0
856.5336 594.0
857.5304 276.0
864.4924 375.0
864.5025 305.0
865.5486 2944.0
866.5551 1364.0
867.5595 413.0
953.5616 149.0
964.6318 2016.0
965.6422 1034.0
966.639 348.0
966.6566 262.0
970.5951 1005.0
971.5961 610.0
972.5908 300.0
981.5646 161.0
1027.583 144.0
1049.643 139.0
1050.6375 271.0
1067.6558 2998.0
1068.6631 2027.0
1069.6582 784.0
1070.6549 219.0
1078.8252 305.0
1127.7325 718.0
1128.7468 434.0
1129.7552 165.0
1214.7719 2298.0
1215.7803 1541.0
1216.7771 532.0
1216.7847 535.0
1217.7935 181.0
1230.7504 651.0
1231.7421 404.0
1231.7697 399.0
1232.7645 198.0
1327.8884 153.0
END IONS
BEGIN IONS
TITLE=Spectrum 1GLYPHOS_VAAAFPGDVDR_1117_01.csv DRIFT_TIME=16.3564 
PEPMASS=559.2875
CHARGE=2+
55.0636 180.0
61.0501 569.0
69.0815 215.0
70.0765 3200.0
72.0925 2674.0
74.072 669.0
80.0251 835.0
84.0585 250.0
84.094 323.0
86.1103 4068.0
87.0581 272.0
87.1122 237.0
89.0742 915.0
99.0025 255.0
102.0705 336.0
110.045 2752.0
110.0883 4585.0
110.5469 220.0
111.0918 229.0
115.104 471.0
116.0905 189.0
120.1003 2425.0
121.0868 198.0
121.1033 231.0
122.1003 979.0
211.1533 1505.0
159.0444 1342.0
341.29 1285.0
684.4588 1253.0
454.3133 1251.0
285.1806 1193.0
197.0238 1166.0
601.4072 1163.0
136.0973 1122.0
145.0154 1056.0
680.4405 1037.0
543.359 1015.0
322.9316 1011.0
133.1075 1007.0
674.4691 988.0
122.1003 979.0
169.1619 956.0
381.303 934.0
89.0742 915.0
214.9522 915.0
307.0552 877.0
257.1792 844.0
80.0251 835.0
703.4722 831.0
382.9729 827.0
274.9937 812.0
228.1816 791.0
561.3484 782.0
159.1032 757.0
232.9648 735.0
205.0567 709.0
334.2421 674.0
313.24 670.0
74.072 669.0
321.2602 664.0
378.2367 654.0
316.165 636.0
237.1727 596.0
264.9647 590.0
61.0501 569.0
270.1482 547.0
358.9577 537.0
383.225 534.0
283.1895 525.0
265.1656 524.0
662.408 524.0
232.1757 493.0
115.104 471.0
143.1051 470.0
641.3892 464.0
227.1385 452.0
255.149 442.0
660.4283 441.0
215.1498 431.0
304.9448 417.0
444.3734 404.0
166.089 398.0
685.4578 398.0
214.1492 388.0
197.1585 387.0
544.4469 377.0
439.2625 373.0
348.0299 358.0
199.1374 355.0
187.1029 354.0
134.9857 353.0
129.1228 351.0
396.2713 350.0
285.2375 343.0
259.0122 342.0
484.2813 338.0
102.0705 336.0
602.4036 332.0
158.1197 328.0
390.2818 327.0
457.2775 326.0
84.094 323.0
176.1502 313.0
172.1412 312.0
324.281 312.0
209.1736 311.0
243.1899 308.0
443.3491 306.0
177.1409 305.0
178.0812 305.0
290.1938 305.0
256.079 301.0
525.3276 293.0
438.2926 292.0
369.2365 290.0
675.4676 290.0
249.1996 284.0
199.0232 283.0
573.4081 283.0
147.1362 277.0
87.0581 272.0
283.9644 269.0
163.0277 267.0
259.1356 265.0
306.9443 262.0
255.0682 261.0
448.2704 257.0
99.0025 255.0
220.1428 255.0
179.0493 254.0
84.0585 250.0
412.2662 249.0
481.3322 247.0
344.2505 246.0
561.4121 245.0
282.9775 244.0
318.2276 243.0
273.0542 240.0
382.3094 238.0
87.1122 237.0
361.2463 236.0
455.3124 234.0
273.1634 233.0
374.2329 232.0
121.1033 231.0
111.0918 229.0
301.9804 228.0
430.2526 225.0
644.4264 225.0
250.9766 223.0
110.5469 220.0
213.0421 220.0
250.0305 217.0
306.0025 217.0
69.0815 215.0
286.9751 210.0
562.3647 210.0
479.2501 208.0
276.9393 207.0
342.2957 204.0
223.1933 203.0
483.2638 202.0
258.9305 201.0
475.2897 201.0
152.9984 200.0
191.1492 200.0
121.0868 198.0
231.1397 194.0
273.2009 194.0
384.2587 194.0
116.0905 189.0
246.9441 189.0
632.4198 189.0
228.933 188.0
286.1863 188.0
341.2327 185.0
441.274 185.0
308.0605 183.0
222.9356 182.0
293.1625 181.0
426.3118 181.0
55.0636 180.0
319.2392 177.0
344.9321 176.0
379.2259 176.0
187.1748 175.0
257.0716 172.0
321.1647 172.0
201.1533 171.0
130.0876 168.0
169.1244 168.0
177.0568 168.0
196.0275 167.0
141.0892 166.0
333.2441 166.0
266.9593 165.0
258.1866 162.0
504.3226 162.0
284.9717 161.0
439.3662 161.0
198.0242 160.0
305.2992 159.0
432.3277 159.0
642.4073 158.0
141.1232 157.0
144.1444 157.0
185.1289 153.0
339.274 150.0
415.307 150.0
181.0478 149.0
344.0075 149.0
701.4725 149.0
204.9188 148.0
212.1515 146.0
136.9814 142.0
380.1883 141.0
505.3059 141.0
341.086 139.0
431.2539 136.0
440.2695 136.0
507.3166 136.0
563.3501 136.0
630.4395 136.0
619.399 135.0
300.1985 134.0
318.9783 134.0
501.3146 134.0
287.9873 132.0
262.9162 131.0
303.9721 131.0
251.1911 130.0
359.2557 128.0
645.4287 128.0
155.1427 127.0
545.4333 126.0
559.3695 126.0
564.3527 126.0
598.3809 126.0
598.3809 126.0
559.3695 126.0
564.3527 126.0
545.4333 126.0
322.2653 125.0
377.2297 125.0
397.3248 125.0
322.2653 125.0
377.2297 125.0
397.3248 125.0
240.9484 124.0
272.9473 124.0
240.9484 124.0
272.9473 124.0
317.979 123.0
366.0138 123.0
317.979 123.0
366.0138 123.0
562.4033 122.0
562.4033 122.0
704.4508 121.0
704.4508 121.0
254.9333 120.0
254.9333 120.0
531.3831 118.0
531.3831 118.0
314.2448 117.0
314.2448 117.0
368.2216 114.0
422.2196 114.0
661.4363 114.0
422.2196 114.0
368.2216 114.0
661.4363 114.0
640.4079 112.0
640.4079 112.0
523.3091 110.0
523.3091 110.0
663.3972 109.0
663.3972 109.0
437.2744 105.0
522.3225 105.0
437.2744 105.0
522.3225 105.0
END IONS
BEGIN IONS
TITLE=Spectrum 1GLYPHOS_VFADYEEYVK_1262_01.csv DRIFT_TIME=16.2629 16.21 16.3187 16.5623 16.5937 16.8172 16.2205 16.8222 16.6716 16.4757 16.4543 17.1126 17.2896 16.6607 17.1184 16.7704 16.8844 17.224 17.2271 17.0742 16.9072 18.1549 18.6378 20.1281 20.4257 17.6954 17.3055 18.1267 17.6775 20.2861 18.2223 20.4848 19.9883 19.2241 18.2215 19.6327 18.392 19.2469 20.0448 20.2512 18.477 18.8855 21.9444 22.9577 24.6752 23.6419 24.2889 27.2433 26.7099 27.0356 23.9635 24.9258 21.9303 29.8098 26.0374 25.8991 27.2488 27.3931 30.4469 30.7397 29.1861 25.8171 30.0735 33.1966 30.1452 38.7358 29.6085 39.7954 28.0148 31.9011 29.8271 29.172 35.114 30.706 29.9057 32.9425 28.0657 34.9648 32.5146 32.8039 36.8518 32.7752 34.3785 30.4956 35.0024 34.7274 41.0004 36.1275 27.3905 37.2394 29.0185 33.2588 32.0436 45.1272 44.3789 36.6307 37.7679 34.4746 33.1169 33.4414 33.6499 45.4193 38.1404 38.2671 50.2517 45.6991 41.7054 40.7386 38.6728 44.4469 40.3859 36.2029 36.2803 40.3725 36.884 43.3182 44.2665 43.2268 40.5546 40.8261 37.219 45.6032 51.0357 42.3209 43.9968 44.8256 45.4439 47.4848 37.0724 43.2846 55.1787 43.0132 49.0811 48.7942 46.4449 46.0681 45.7313 41.9266 57.8529 57.6372 56.093 51.9478 55.2764 41.5988 46.8777 47.2721 45.6618 47.837 57.0449 47.8903 56.5655 56.1809 48.1405 53.0825 60.4325 45.0821 51.7245 60.2433 45.9257 52.4961 54.065 59.9311 61.1068 54.163 72.9053 68.712 74.4698 77.6746 88.3206 88.5933 85.5644 86.1292 88.6055 95.0722 96.2548 96.9902 99.4895 102.0836 111.1731 121.9109 124.8279 125.2186 121.9306 129.6158 133.7429 132.209 139.7953 136.9542 135.9723 
PEPMASS=631.803
CHARGE=2+
55.063 201.0
69.0794 287.0
70.0748 371.0
72.0908 2296.0
84.0925 315.0
86.1075 5181.0
87.0563 341.0
87.1113 403.0
89.0722 916.0
104.0868 211.0
110.087 551.0
116.0873 142.0
120.0968 4201.0
121.0815 376.0
121.1 429.0
122.0982 2516.0
123.1001 185.0
129.1205 475.0
130.1044 265.0
132.1001 183.0
133.1042 1068.0
136.0952 905.0
137.1001 125.0
143.1373 168.0
145.0102 226.0
145.117 1216.0
147.1016 189.0
147.1327 433.0
149.1189 135.0
157.1554 225.0
158.1127 266.0
159.0407 372.0
159.1138 693.0
160.1147 141.0
165.1146 313.0
169.157 122.0
170.0834 308.0
173.1141 483.0
175.1424 1570.0
176.1461 155.0
177.1371 283.0
178.0792 467.0
179.0497 184.0
191.1444 262.0
195.0229 484.0
197.0199 222.0
197.1555 169.0
199.2078 2488.0
200.1689 138.0
200.2102 367.0
205.0519 125.0
206.0584 168.0
210.0551 153.0
213.0083 181.0
214.9456 232.0
215.1703 126.0
219.1786 2182.0
220.1827 316.0
227.2057 648.0
228.208 147.0
231.0228 306.0
232.9632 268.0
235.174 120.0
246.2161 413.0
247.178 521.0
247.2406 513.0
248.1787 133.0
248.244 116.0
250.0219 443.0
251.1372 286.0
252.1434 261.0
253.1288 184.0
255.1818 129.0
256.0756 237.0
259.1303 257.0
265.1556 168.0
268.0409 112.0
268.202 267.0
271.1407 450.0
272.1628 262.0
272.2119 322.0
273.0493 1888.0
274.0569 384.0
274.9851 295.0
279.9948 107.0
281.1447 130.0
284.2332 132.0
286.1766 552.0
286.9739 232.0
287.1773 176.0
287.9768 118.0
290.0221 311.0
291.0719 173.0
291.2721 769.0
292.2842 111.0
293.1529 335.0
300.2141 112.0
300.9565 109.0
307.0512 1705.0
308.0506 257.0
309.0499 170.0
310.2591 427.0
317.1222 464.0
319.1224 391.0
323.2685 170.0
328.2705 369.0
330.1816 133.0
332.9552 374.0
334.0956 119.0
334.1868 228.0
334.9481 109.0
336.8422 118.0
339.0336 186.0
342.9829 249.0
345.007 190.0
347.2153 296.0
347.9914 120.0
350.176 182.0
350.9648 349.0
352.9642 151.0
354.8583 321.0
357.2246 170.0
357.2601 142.0
358.0268 337.0
366.0068 151.0
367.1887 207.0
368.1734 156.0
371.2373 137.0
372.8711 249.0
376.0397 159.0
381.3016 282.0
383.0601 250.0
385.2019 462.0
386.2048 150.0
392.9948 199.0
394.0066 256.0
394.9947 155.0
396.8881 503.0
397.3152 393.0
398.313 137.0
399.3122 244.0
408.1911 248.0
409.3008 601.0
411.9079 183.0
412.0198 175.0
413.0025 251.0
414.0048 109.0
416.9693 146.0
417.2994 348.0
418.9663 214.0
422.2143 347.0
423.2148 132.0
430.9987 269.0
433.1031 182.0
446.2935 199.0
453.9358 164.0
455.0188 134.0
458.2856 244.0
471.9457 183.0
477.0226 272.0
479.0203 194.0
479.241 273.0
484.2829 140.0
497.0148 130.0
511.3304 280.0
537.2508 266.0
538.3599 304.0
608.3039 443.0
631.4264 720.0
632.4263 363.0
642.4435 2112.0
643.4483 849.0
667.4275 189.0
737.4211 159.0
755.4276 397.0
756.4392 149.0
757.482 291.0
771.3834 184.0
830.5007 286.0
945.5446 345.0
946.5631 212.0
1008.6302 331.0
1009.6239 209.0
1016.595 474.0
1016.5959 547.0
1017.6026 344.0
1040.6476 205.0
1041.6478 152.0
1107.705 228.0
END IONS
BEGIN IONS
TITLE=Spectrum 1GLYPHOS_VLYPNDNFFEGK_1442_01.csv DRIFT_TIME=16.517 16.4467 16.7189 16.6034 16.456 16.3708 16.9246 16.1985 16.889 16.5893 16.2597 16.7303 16.6385 17.2839 16.8048 17.2406 17.0232 18.2074 18.295 16.2439 18.736 20.2768 17.1905 18.2258 20.6283 20.6754 18.1522 20.043 21.6106 19.9562 19.0112 20.9727 24.8008 21.491 24.6678 24.362 24.397 28.1965 27.981 24.6199 25.4181 23.3242 26.0857 24.5327 27.1635 27.0847 25.721 27.8154 28.4905 31.107903 31.228203 28.3173 25.951 28.4565 28.142 30.0402 28.5728 32.7882 31.703499 39.2138 33.4643 29.9245 30.2475 29.5271 30.1432 29.2888 30.7397 31.8838 33.1724 34.6711 32.7032 40.8226 31.064598 36.7121 34.2209 38.4414 27.6018 40.4223 44.8887 46.0236 44.8383 45.1224 37.382 41.0317 45.7708 33.6144 39.0093 41.8985 44.6429 39.2706 44.6362 41.2312 41.0468 47.0481 46.1189 42.375 41.7794 38.3322 32.2878 45.2504 45.0958 44.8653 47.2111 49.5669 52.636 49.0159 52.198 46.3089 51.9606 56.5496 55.7664 58.9602 51.1271 53.1102 61.8934 62.0854 54.0586 53.8561 65.054 64.2997 62.8542 63.413498 66.9082 66.7389 66.6919 63.2677 61.8341 72.0974 71.0269 71.159 79.2737 92.882 74.8425 67.8665 75.5686 75.7702 70.268 75.7094 73.4014 74.7916 84.1279 82.7552 103.1074 89.3904 89.4168 85.6422 86.2322 93.9289 92.5663 110.8605 99.2001 89.6016 103.5705 96.466 92.9881 92.3067 97.0603 91.3464 98.0482 97.7112 101.3451 93.6231 102.7431 94.556 95.4939 100.644 99.3872 97.529 97.885 107.0686 107.112 107.9699 112.1984 112.2582 109.4385 109.5702 110.416 110.4525 117.3956 128.9688 127.7632 128.0497 127.3927 124.5667 123.8268 124.2499 132.052 135.6913 135.5705 135.9908 135.6434 152.9671 146.2405 148.0171 148.2862 163.2231 162.4429 158.7141 164.5572 153.1241 156.7772 151.9269 155.0741 173.7619 
PEPMASS=721.8535
CHARGE=2+
55.0647 208.0
70.0781 1187.0
72.0939 3701.0
73.0983 178.0
84.0585 209.0
84.0961 230.0
86.1108 8133.0
87.059 309.0
87.1149 619.0
89.0746 627.0
110.047 671.0
110.0918 460.0
119.0679 152.0
120.1018 471.0
122.103 260.0
129.1273 547.0
133.1101 710.0
136.0998 8824.0
137.1041 868.0
140.0677 177.0
143.1436 695.0
145.0195 335.0
147.0698 153.0
147.1392 374.0
157.1635 244.0
159.0492 221.0
165.12 183.0
171.1422 615.0
173.1581 165.0
175.151 1619.0
177.1434 307.0
184.1406 153.0
185.1977 5896.0
186.1575 194.0
186.2033 868.0
195.032 1228.0
197.0292 405.0
199.2161 4383.0
200.2209 719.0
201.161 488.0
204.1711 1879.0
205.0605 841.0
205.1719 161.0
212.1419 355.0
213.1972 4714.0
214.1991 741.0
214.9592 145.0
223.1474 2668.0
224.1491 390.0
227.2161 2102.0
228.2176 330.0
229.1651 139.0
232.9694 126.0
233.1694 319.0
234.1721 153.0
235.1825 429.0
239.1589 134.0
239.2174 130.0
242.1946 442.0
247.2466 354.0
249.2067 535.0
251.1463 690.0
252.1565 126.0
255.0764 340.0
255.1547 189.0
257.0699 142.0
261.1726 234.0
262.166 158.0
263.1836 149.0
271.2216 135.0
273.058 117.0
273.2701 108.0
275.0005 530.0
277.2056 135.0
283.1917 171.0
284.2455 187.0
286.9885 137.0
288.2551 332.0
291.2832 672.0
292.2856 151.0
296.2494 1048.0
297.2551 224.0
301.21 104.0
301.2812 119.0
303.2648 119.0
307.0668 194.0
310.2349 111.0
313.2434 193.0
314.2646 1722.0
315.2245 431.0
315.2692 323.0
327.1883 459.0
328.1877 147.0
331.261 500.0
332.2682 129.0
333.2371 802.0
334.2431 130.0
335.0419 110.0
340.2317 120.0
346.2353 323.0
350.2338 474.0
351.2353 104.0
364.2507 288.0
369.2794 117.0
371.3098 151.0
375.2278 118.0
376.2926 788.0
377.2151 130.0
377.2948 173.0
412.327 195.0
414.3053 138.0
418.3143 139.0
424.231 155.0
431.2203 180.0
435.3466 473.0
436.3415 134.0
441.2548 443.0
442.2509 160.0
449.3562 249.0
459.3454 422.0
460.3441 142.0
463.3373 286.0
477.3477 201.0
480.333 885.0
481.3345 270.0
490.2959 192.0
491.2734 202.0
506.4026 672.0
507.4037 254.0
543.3208 176.0
548.4492 122.0
551.4297 236.0
553.3728 129.0
554.2876 107.0
560.3438 273.0
561.3411 136.0
571.3184 243.0
581.3734 171.0
588.346 573.0
589.3413 204.0
597.4401 774.0
598.4407 229.0
607.4981 353.0
627.4256 538.0
628.4281 178.0
635.4647 1049.0
636.4618 382.0
645.4519 150.0
657.5091 128.0
663.5732 188.0
680.5168 129.0
692.4287 150.0
705.6183 130.0
707.435 164.0
708.4377 126.0
709.4423 172.0
710.5581 118.0
718.4066 197.0
721.5263 295.0
722.5126 675.0
723.527 517.0
724.5001 213.0
724.5202 250.0
735.4442 324.0
736.437 189.0
741.4856 535.0
742.4979 262.0
750.5138 944.0
751.516 461.0
781.6097 159.0
847.4819 262.0
848.4778 135.0
856.5388 657.0
857.5433 369.0
864.5027 484.0
865.5542 3140.0
866.5622 1562.0
867.5668 501.0
939.5381 111.0
964.6434 1946.0
965.6508 1218.0
966.6401 394.0
967.6615 146.0
970.5938 1242.0
971.5965 833.0
972.5894 235.0
1050.632 306.0
1067.6637 3906.0
1068.6663 3010.0
1069.6665 1221.0
1070.6738 334.0
1078.8188 467.0
1127.7363 859.0
1128.7418 688.0
1129.7332 206.0
1214.7819 2397.0
1215.7858 1897.0
1216.7885 737.0
1216.7941 615.0
1230.757 770.0
1231.7572 587.0
1231.7722 509.0
1232.773 258.0
1327.8936 217.0
END IONS
BEGIN IONS
TITLE=Spectrum 1GLYPHOS_WPVHLLETLLPR_1472_01.csv DRIFT_TIME=16.3626 16.5805 16.2946 16.5288 16.8719 16.274 16.5145 16.3766 17.4747 16.7882 17.4297 16.8016 16.7544 18.2484 18.1751 18.9893 18.6579 18.4096 20.2787 20.3165 19.2795 18.419 20.5279 18.8374 19.9625 21.8589 24.5795 24.7908 24.493 25.322 27.9425 25.7208 23.4636 27.1649 25.9158 30.1833 28.3178 31.7612 30.7129 28.8305 34.7458 33.73 31.134201 31.8679 31.6039 34.0678 36.3727 32.4227 36.5582 32.3743 31.874298 33.5055 45.0536 33.1835 44.2175 40.957 40.9235 44.5842 44.9728 47.9642 46.9688 45.6747 51.7898 45.1563 44.3509 50.2179 50.2874 54.6707 50.2485 49.5608 53.5418 65.1842 65.5437 52.3143 66.7924 75.2154 67.6733 66.0467 71.1379 70.3208 70.7346 63.2947 84.1504 88.8844 83.1427 84.38 83.908 97.6572 86.2119 85.1375 103.3685 98.4355 101.7508 103.8737 98.1241 98.1245 95.6292 98.0718 109.2143 118.1415 118.4277 120.0827 138.8143 139.9084 136.9358 155.3988 157.5536 157.7682 171.9114 166.2404 172.4403 
PEPMASS=737.4355
CHARGE=2+
70.0775 932.0
72.0942 755.0
84.0601 159.0
84.097 329.0
86.1114 1625.0
110.0465 223.0
110.0914 1934.0
111.0944 204.0
120.1022 312.0
122.1041 944.0
129.1256 340.0
130.0893 898.0
133.1089 161.0
136.1002 984.0
137.1047 124.0
143.1438 145.0
147.144 135.0
158.1241 190.0
159.1211 1501.0
160.1255 225.0
166.0911 171.0
167.1223 130.0
169.1652 347.0
170.0913 471.0
175.1511 1668.0
184.1508 135.0
185.1981 646.0
195.0323 250.0
197.0315 127.0
197.1603 111.0
199.2164 314.0
204.1724 194.0
205.0603 173.0
213.1978 378.0
214.9582 135.0
223.1949 627.0
224.1574 269.0
227.2136 154.0
237.1762 377.0
239.1627 484.0
251.1957 701.0
252.1957 132.0
255.1908 998.0
256.192 802.0
257.1935 158.0
265.1751 258.0
272.2198 998.0
273.0603 110.0
273.2271 119.0
284.1887 604.0
285.1943 157.0
290.0403 103.0
296.2481 108.0
307.0662 551.0
314.2657 157.0
315.2285 113.0
327.1909 135.0
334.2489 839.0
335.2508 171.0
338.2482 255.0
350.2819 202.0
356.2548 107.0
364.2958 123.0
365.2651 426.0
366.2627 170.0
368.2985 125.0
372.2349 163.0
378.2823 327.0
383.2787 873.0
384.2792 232.0
385.3283 308.0
447.3478 268.0
475.3245 256.0
477.0502 124.0
493.3696 129.0
498.4303 202.0
503.3296 309.0
504.3332 154.0
506.3992 218.0
520.3636 343.0
521.3607 201.0
573.0535 201.0
597.4536 131.0
599.4962 566.0
605.4631 135.0
617.4507 276.0
618.4618 125.0
627.4279 200.0
635.465 389.0
636.4779 185.0
716.4692 152.0
728.5591 487.0
728.5615 500.0
729.5577 219.0
741.521 954.0
742.5316 342.0
750.5226 257.0
762.4116 273.0
772.4927 177.0
841.665 1920.0
842.6673 1010.0
843.6695 288.0
954.772 1227.0
955.7758 685.0
956.7771 243.0
1091.8557 747.0
1092.8632 483.0
1093.8473 246.0
1190.9456 382.0
1190.9517 366.0
1191.9525 279.0
END IONS
BEGIN IONS
TITLE=Spectrum 1GLYPHOS_YEFGIFNQK_1145_01.csv DRIFT_TIME=16.2717 16.4999 16.6565 16.1608 16.3923 16.4165 16.7624 16.8152 19.3765 16.5345 16.283 16.5467 17.0421 16.4772 17.3782 17.0222 16.9401 17.4411 17.264 16.969 22.2855 18.3206 22.1332 18.1841 19.2619 20.4067 16.9868 18.5019 16.268 18.341 18.4402 20.8084 20.6785 19.6665 20.0481 21.6348 19.1136 21.412 21.1276 21.742 22.8597 24.2139 24.1056 24.1307 24.4721 23.935 22.2065 23.4991 24.699 26.0577 26.0062 29.6288 26.0283 26.0401 28.1354 29.047 26.1249 25.8349 30.2058 28.2758 29.6128 39.3961 30.4203 27.8656 25.7156 29.9175 30.132 30.9694 28.9739 32.9007 30.5368 31.8162 28.5917 34.6195 33.5864 34.0839 31.847198 33.6438 33.5814 33.4717 32.8711 36.5729 33.5846 31.0677 33.6787 36.1032 32.4117 27.7728 33.5526 35.6194 35.2195 32.8761 45.4429 31.5346 36.7465 37.3 39.8124 39.0459 33.1013 32.7465 37.1692 42.6597 37.9514 41.8048 40.8499 41.8968 39.5951 45.8279 36.2743 40.3972 38.6001 36.7629 31.8288 43.7451 48.5288 40.3877 38.0607 40.5731 40.9716 36.7568 40.7835 45.3862 37.201 43.1213 53.1556 43.0054 46.5353 47.5901 36.4585 42.2407 50.946 50.3037 50.8239 47.0205 54.2659 47.0839 54.1129 43.2468 47.311 53.8315 47.1456 41.5986 54.2508 60.3937 57.1314 71.8258 54.715 57.8973 58.4785 60.0547 65.7603 62.939 63.890503 59.3274 56.0796 76.2918 67.905 63.8872 74.0198 69.0367 72.5056 72.596 71.6049 78.4171 78.3897 73.3472 73.9514 76.0692 73.0137 82.2587 80.1795 63.2499 79.8163 94.5932 92.9782 88.6089 94.3002 92.8755 92.6551 90.7088 98.7203 98.0465 97.0391 119.8699 121.1041 118.6517 111.651 116.4211 133.4525 135.4146 
PEPMASS=573.2875
CHARGE=2+
61.0499 296.0
70.0765 645.0
72.0938 278.0
80.0244 158.0
84.058 316.0
84.0936 569.0
86.1099 1784.0
89.0737 342.0
99.0014 197.0
102.0707 301.0
110.0447 696.0
110.0891 374.0
115.1008 190.0
119.0681 203.0
120.0996 1904.0
121.1025 180.0
122.1 1427.0
129.1223 575.0
130.104 225.0
133.1054 352.0
134.9852 222.0
136.0961 8206.0
136.9832 193.0
137.1016 878.0
143.1385 277.0
145.0157 555.0
147.0667 204.0
147.1356 302.0
154.0299 200.0
157.1322 198.0
158.1177 163.0
159.0435 1122.0
163.0292 236.0
169.1205 156.0
175.146 2499.0
177.1298 109.0
178.0822 272.0
179.0492 410.0
185.134 185.0
186.1521 117.0
187.1724 198.0
195.026 2149.0
196.0274 192.0
197.0238 1957.0
198.0281 134.0
199.0226 140.0
202.1191 361.0
205.0576 428.0
205.1286 146.0
211.1505 1127.0
212.1542 210.0
213.0086 159.0
214.1525 196.0
214.9494 784.0
228.1777 383.0
231.0255 288.0
231.147 103.0
232.9642 474.0
240.1708 126.0
243.1468 215.0
247.1457 166.0
247.2465 111.0
249.1623 271.0
250.0241 191.0
250.9751 120.0
255.0663 211.0
255.1473 279.0
256.0755 275.0
257.0693 145.0
257.1994 270.0
258.0699 133.0
258.1831 741.0
259.0141 182.0
262.1608 187.0
262.9177 109.0
264.9111 139.0
264.9626 383.0
265.1582 5224.0
266.163 883.0
267.1654 147.0
273.0536 3429.0
273.1646 106.0
274.0558 327.0
274.9954 1118.0
275.2144 654.0
279.1903 136.0
282.976 150.0
286.9773 476.0
290.0302 329.0
290.1869 156.0
290.9403 155.0
291.0693 142.0
291.2757 115.0
293.005 147.0
293.1568 2531.0
294.1598 487.0
304.946 335.0
306.9418 487.0
307.056 713.0
308.0481 194.0
308.9444 232.0
318.2267 336.0
325.0161 109.0
331.9672 206.0
332.9578 1694.0
333.9608 265.0
334.1069 129.0
334.19 224.0
334.8958 367.0
334.9566 647.0
336.0393 233.0
339.0403 115.0
340.2195 215.0
341.0802 171.0
342.2196 229.0
342.994 149.0
349.0298 119.0
350.9723 1742.0
351.9739 186.0
352.911 272.0
352.9737 664.0
354.2342 129.0
354.8654 411.0
355.2177 417.0
355.2764 142.0
358.0291 181.0
359.253 148.0
372.2461 575.0
372.8799 238.0
383.0664 141.0
383.2104 108.0
389.276 1671.0
390.2595 342.0
393.0037 522.0
393.2282 981.0
394.0076 278.0
394.2342 229.0
394.9361 171.0
395.0068 255.0
395.2357 142.0
396.0079 108.0
396.8953 393.0
397.1901 217.0
397.3371 261.0
401.2804 239.0
415.2252 153.0
427.2738 116.0
432.2916 153.0
435.2646 190.0
447.2852 128.0
453.2551 399.0
453.3506 145.0
454.2814 197.0
454.3141 166.0
455.0907 138.0
457.2418 239.0
471.2689 146.0
487.2878 262.0
518.3924 106.0
519.3357 269.0
536.3657 1879.0
537.366 683.0
538.37 155.0
542.3562 252.0
544.4452 126.0
564.3512 223.0
573.3765 203.0
574.3839 123.0
575.3163 318.0
575.4247 194.0
576.4318 111.0
577.2717 281.0
577.4006 240.0
649.4635 387.0
650.4647 196.0
669.4046 401.0
679.4477 165.0
689.4645 161.0
690.4399 125.0
695.4192 279.0
706.4991 1501.0
707.492 562.0
708.4921 220.0
853.5871 1513.0
854.5965 899.0
855.5927 259.0
883.5431 244.0
981.5478 444.0
982.6424 300.0
983.6513 272.0
END IONS
