BEGIN IONS
TITLE=Spectrum 1BSA_DAFLGSFLYEYSR_01-1000counts_9000MSres-export.csv DRIFT_TIME=16.066 15.865601 15.9716 16.0176 16.0738 16.0472 16.1539 16.0569 16.1317 16.2401 16.1935 16.1875 16.1494 15.982399 16.1452 16.1232 16.1686 16.207 16.1679 16.192 16.1808 16.1953 16.1444 16.2324 16.2966 16.2944 16.4504 16.3326 16.3479 16.4217 16.3499 16.3542 16.3956 16.3438 16.3412 16.4266 16.5375 18.0479 16.5817 16.4457 16.3752 16.4872 16.9237 16.5631 17.1634 16.5574 16.7574 16.5961 21.4715 17.0502 17.9556 16.8946 16.9836 16.9033 20.0052 17.0699 16.2888 17.3799 17.1521 18.5767 22.9331 22.8445 16.9017 25.2497 17.5751 18.0118 17.8816 19.8992 19.3402 24.2419 26.9792 26.8263 28.6132 17.7206 21.9366 17.4145 16.7653 20.4952 18.983 19.4205 18.9946 19.6787 19.5155 19.4305 19.8589 22.2477 22.462 18.9378 21.1559 21.3693 21.4074 18.407 16.7246 20.6884 22.2301 25.9936 24.6285 25.6298 25.7332 23.3405 23.477 24.3416 24.0526 18.2908 22.0879 25.4325 25.5413 26.7732 28.946 24.8491 33.4541 34.4297 24.3439 27.641 27.8154 26.6681 26.9174 29.0641 28.9229 28.8844 29.2666 30.3459 16.6102 29.7554 32.1739 31.436897 31.044998 28.2504 29.3735 33.7618 31.452698 32.2279 33.1332 36.0809 17.7358 17.6898 36.5962 32.5945 38.069 19.1908 19.3646 35.1293 37.0044 36.087 39.9421 31.433502 29.6048 38.077 38.882 20.2759 20.308 38.9988 35.8032 36.0322 22.2267 22.819 22.8506 20.7465 20.9214 37.8382 34.878 37.6186 41.8056 40.959 34.1747 41.895 41.7248 54.6975 54.8379 55.5989 41.0869 22.1954 44.2629 43.8542 43.9309 43.2501 24.3867 25.2799 41.4628 43.174 44.4197 36.5776 45.4571 43.5979 41.593 45.1673 45.5967 42.3454 42.1975 28.0102 29.7041 26.2293 26.3382 30.7195 30.0988 26.6509 26.9701 49.4733 31.1848 32.2454 32.5297 52.1223 55.4644 58.8036 48.157 35.0974 32.4692 32.3518 32.8317 59.594 32.8577 32.7404 33.1076 59.8998 60.0176 59.3083 61.3409 61.2863 61.1193 61.2388 61.0126 63.041397 37.4133 38.0111 39.3742 38.376 39.5813 39.2291 40.5016 40.834 40.2504 40.8606 40.6737 39.8107 39.874 40.0657 40.602 40.578 40.5234 40.5641 40.7059 41.2932 40.7439 63.3424 65.564 62.6115 64.5131 41.0273 38.9034 38.8463 39.0103 40.7239 41.4741 41.986 41.0445 42.6789 42.4831 41.5169 42.204 41.9622 42.1392 42.4811 42.3956 42.7514 42.7213 42.3716 41.9778 64.7381 42.0055 75.265 41.7721 40.1219 42.2399 62.9283 37.5554 69.0992 39.4571 36.8023 39.158 42.1238 62.528 38.127 74.1061 42.0969 40.3825 40.0805 41.9453 62.8742 41.6631 73.5165 41.721 41.664 41.8275 61.9123 40.6397 40.2939 72.2786 76.9425 76.182 76.5214 76.7228 80.8969 92.7703 92.0929 93.3818 106.7517 105.1013 105.4825 109.8609 108.6395 112.4523 112.8434 113.5592 113.1397 117.173 132.4731 131.1741 130.1393 132.1204 154.8036 
PEPMASS=784.377
CHARGE=2+
101.0582 388
103.0539 1067
111.0438 1004
114.0533 456
114.0903 433
119.0852 179
120.0782 15411
120.1878 121
121.0838 2280
122.083 248
133.0858 873
136.075 269
141.0623 271
145.0589 179
146.0948 215
147.0796 434
155.0681 1642
159.0745 2789
160.0779 254
171.1099 247
173.0787 3414
174.0833 396
175.1174 618
177.1103 540
187.0697 2858
188.0755 357
190.0846 378
191.1123 183
195.113 358
201.1001 314
203.0601 425
207.112 262
213.1106 575
217.1055 1631
218.1075 197
219.0696 1314
220.0758 210
227.1992 577
229.0829 250
231.1221 1030
232.1213 175
233.0856 263
233.1657 960
237.0825 404
240.134 161
243.1206 180
244.0947 197
251.1033 168
255.2275 372
258.137 148
259.1649 227
261.1205 2802
262.1474 1403
263.1509 214
265.2499 195
268.1617 144
272.1226 241
274.1636 652
275.1637 171
281.1137 258
281.2444 498
282.2526 117
283.1699 241
283.262 625
286.1383 346
288.1343 195
289.1183 537
295.127 370
306.1429 228
307.2575 212
309.275 5827
310.2789 987
311.289 176
316.1258 245
318.1797 191
321.1226 168
325.6843 122
329.1771 126
331.173 186
333.1866 143
334.1359 1802
335.1335 464
345.1514 3068
346.1544 640
347.153 204
349.1356 165
357.1745 141
358.156 165
359.1663 1725
360.1705 486
361.1733 148
365.1594 213
371.1307 147
371.2279 137
375.1961 246
377.2145 244
385.1777 187
387.1992 239
388.1856 127
389.1797 592
390.1837 180
391.1502 380
392.1493 165
394.2351 165
401.1105 417
403.1911 679
404.1913 190
405.2105 294
408.182 146
409.162 526
410.2871 847
411.2868 281
415.1232 321
417.2097 406
419.2231 162
423.176 411
424.1706 146
425.2124 1915
426.2113 548
427.2156 115
430.1726 259
433.1945 128
439.5793 149
444.2019 127
446.1699 191
447.2205 524
448.2166 167
449.1306 360
451.1167 128
459.2277 144
463.2487 132
467.2002 283
475.2169 123
476.2471 582
476.619 192
476.9497 123
477.2497 182
478.1877 218
480.2573 146
485.2967 138
485.6227 143
486.2364 185
488.23 379
489.2376 182
490.3026 148
495.1382 117
497.2206 153
504.242 718
505.2517 222
513.6427 106
513.9752 107
514.1918 265
517.2215 635
518.2218 185
522.311 196
522.6439 165
522.9798 122
523.7407 143
524.2493 133
531.2429 1124
531.8129 160
532.2393 302
534.2678 141
537.238 121
541.2536 128
545.2727 138
546.2659 222
546.4102 1175
547.4183 464
548.4198 114
550.2267 115
552.2535 122
553.2682 135
554.252 2025
555.2612 638
556.2481 130
559.3303 131
559.6743 149
561.2491 109
563.2787 244
573.2624 524
573.8451 156
574.26 189
575.2682 282
581.2357 209
591.2731 534
592.2735 157
595.2467 303
596.2611 131
596.6985 110
605.3626 121
608.7905 353
609.2987 295
614.0398 126
614.3711 150
617.7973 475
618.2992 344
639.2624 108
642.0438 158
642.3817 254
642.7244 171
648.2645 114
650.2757 119
665.3571 110
673.335 138
676.6588 133
682.3233 321
682.8298 245
683.3335 168
684.3464 122
691.3274 387
691.8361 302
692.3345 126
697.3224 131
699.3071 123
700.2786 145
717.3122 4185
718.3156 1667
719.3235 408
720.3306 423
721.3255 155
738.3356 282
743.9363 127
750.4534 238
756.1225 114
756.463 181
756.793 135
757.4649 123
757.7027 136
757.9614 135
760.7186 129
760.96 218
761.2079 244
761.4601 153
761.7038 148
761.9607 167
762.2042 151
762.4592 122
764.4585 166
765.217 174
765.4628 262
765.7128 179
765.9694 129
767.314 741
767.4602 583
768.3195 263
768.4621 278
768.4704 128
775.3517 302
775.8585 277
776.3552 175
778.472 649
778.803 472
778.9718 505
779.1382 449
779.2226 267
779.476 564
779.7225 150
781.2655 177
781.4706 508
781.6977 441
781.9749 476
782.226 813
782.4699 613
782.7254 498
782.9758 522
783.2261 500
783.3436 216
783.4791 779
783.4926 598
783.7273 366
783.8049 215
783.9826 222
784.3415 243
784.4623 1464
784.486 514
784.8088 914
784.9572 1009
785.1366 690
785.2812 271
785.4023 857
785.4672 973
785.4844 271
785.6879 256
785.8125 176
785.9786 469
786.2272 368
786.4101 306
786.4739 898
786.5262 139
786.7226 957
786.9817 1110
787.227 509
787.3284 1449
787.476 854
787.9854 181
813.39 154
830.3929 2683
831.4003 1514
832.4036 419
833.4058 179
851.4178 196
977.4601 2192
978.4658 1325
979.47 364
1064.495 1885
1065.4955 1382
1066.4987 445
1103.5072 463
1104.4955 333
1121.5007 7606
1122.5123 5120
1123.521 1853
1124.5391 510
1125.501 164
1234.594 2252
1235.5905 1408
1236.6143 562
1237.5977 188
1381.6715 233
END IONS
BEGIN IONS
TITLE=Spectrum 1BSA_DAFLGSFLYEYSR_02-1000counts_9000MSres-export.csv DRIFT_TIME=16.1042 15.997601 16.0418 16.0084 16.1022 16.1199 16.0477 16.1422 16.1316 16.1201 16.0693 16.1674 16.0233 16.2817 16.2152 16.2253 16.1194 16.1108 16.1318 16.133 16.1263 16.2078 16.3503 16.3458 16.1944 16.1891 16.198 16.1821 16.1665 16.2983 16.2944 16.1167 16.22 16.4575 16.327 16.3566 16.2917 16.5011 16.3579 16.3964 16.4258 16.315 16.4351 16.4249 16.2824 17.9939 16.6324 16.5091 16.4165 16.6419 16.8167 16.6217 16.3824 16.5676 17.0295 16.7554 16.4462 16.6745 21.1225 16.8904 17.8987 17.0035 17.027 16.6375 17.0691 16.5557 17.2896 17.1687 16.7164 18.6983 22.9185 23.3026 16.739 25.9265 17.6996 18.0763 18.1653 17.2003 17.8305 19.7154 19.6136 25.0349 26.9978 27.2356 28.4445 18.1382 22.0107 17.5833 16.7153 19.9045 20.5222 19.0624 19.7517 19.1247 19.5211 16.6363 19.5746 19.6575 19.7179 21.8919 19.9921 18.3613 20.9737 21.7551 16.5421 18.9849 16.2734 22.1142 26.9329 24.9716 25.9447 26.4076 23.1805 23.3848 24.0774 18.6261 21.9276 25.4371 25.6777 26.6577 28.1427 29.7499 24.99 33.7006 33.774 24.2541 27.5413 27.4068 25.9956 31.8852 27.2434 28.9831 29.559 29.644 16.6285 31.190598 31.119102 16.968 16.9032 28.273 23.2687 29.1273 34.5205 32.5731 33.9947 36.7862 17.919 17.9257 37.4858 19.1075 19.2216 37.726 36.9229 39.7248 38.7715 38.8071 39.7468 36.3667 35.3014 22.7995 22.3031 37.6318 34.3781 34.9147 38.2408 41.65 41.4699 42.026 54.7843 54.6252 42.8551 44.2847 43.8856 43.4392 25.8035 43.8744 45.1546 43.7005 43.3277 44.1023 25.2961 39.7757 45.7811 42.3939 26.1606 30.9335 30.3517 27.2627 26.4781 31.091 48.6872 32.7934 58.3366 61.1589 60.9142 61.725 60.3877 59.7407 40.0984 38.9961 38.686 39.7463 41.0935 41.2526 41.7047 40.6979 39.9159 40.6833 40.3564 62.4145 63.292297 39.5367 39.6885 41.2067 41.8075 42.4192 40.7758 42.3008 42.0743 42.3089 41.8858 42.9262 42.7659 42.6032 41.9989 41.7728 41.3116 73.1704 42.1074 42.0224 42.2934 63.299698 37.1309 74.293 39.762 36.8376 39.1763 63.393295 37.7559 78.1459 39.1333 42.0495 63.671204 41.8277 42.3654 41.6031 42.2358 62.0475 40.149 39.993 70.8568 76.9589 77.7116 76.2278 74.5567 92.2773 91.7048 92.3001 104.1228 108.5033 105.3928 107.8792 101.9917 105.7378 109.6011 109.0188 112.0655 111.618 113.6732 113.5906 132.4574 130.8871 132.8914 130.0449 
PEPMASS=784.377
CHARGE=2+
101.0589 448
103.0535 1401
111.0428 1044
113.0628 202
114.056 567
114.0903 409
119.0829 186
120.078 15574
121.084 2219
122.0836 277
124.0388 219
129.0532 175
133.0856 584
136.0743 538
138.094 150
141.0612 264
146.0939 200
147.0797 578
155.0693 1867
156.0723 220
158.095 303
159.0752 2831
160.0794 288
169.0836 225
171.1111 282
173.0788 4021
174.0844 444
175.0484 180
175.1173 776
177.1096 390
187.0708 2219
189.1025 208
190.0862 442
191.1097 185
193.0623 190
193.0944 187
195.1116 326
201.0991 335
203.0609 405
207.1123 321
213.1109 686
217.1034 1610
218.1096 274
219.0705 1490
226.1068 147
227.2016 392
229.0838 252
231.1204 938
232.1293 163
233.0824 267
233.1611 800
234.1628 184
235.1126 165
237.0836 440
240.1307 171
244.0877 164
245.1226 237
251.1017 161
255.2252 191
258.1455 213
259.1729 323
261.1206 2493
262.1497 1306
263.09 194
268.153 145
272.1208 283
274.1659 877
275.1714 164
277.0989 195
281.1121 301
281.2445 345
282.2468 105
283.1719 274
283.2583 437
286.1365 289
288.1281 162
289.1165 521
292.1283 205
293.1109 181
295.1196 342
306.1429 178
307.2611 144
309.2763 4423
310.2809 687
311.2858 126
316.1241 231
318.1848 158
321.1357 200
325.6916 151
329.1824 149
330.1803 116
331.1732 141
333.1846 121
334.1364 1422
335.1369 368
338.7028 144
345.151 2876
346.1508 630
347.1562 210
349.1296 193
357.0775 179
358.1563 162
359.1659 1466
360.1726 346
364.1196 135
365.1578 230
371.1285 145
373.1683 136
377.215 189
385.1804 256
387.201 214
388.1905 163
389.1765 544
390.1742 153
391.15 408
394.2344 141
401.1057 517
403.1941 546
404.195 152
405.2061 307
406.1986 165
408.1878 342
409.1615 355
410.2863 855
411.29 204
415.1293 355
417.2099 335
418.2102 116
419.2171 146
419.2306 133
423.1693 378
425.2103 1604
426.2116 390
430.1812 305
439.9258 146
446.1735 213
447.2198 333
448.2694 182
448.5989 122
449.1345 352
449.7628 121
451.1125 146
459.2214 137
467.2048 193
475.2214 106
476.2484 388
476.6233 134
476.9491 142
477.2518 126
485.2899 183
485.6226 179
488.2335 320
489.2295 136
490.2989 123
504.2436 423
505.2515 153
514.1977 205
517.227 445
518.2371 145
522.3168 135
522.6469 172
531.2389 834
531.3291 176
531.8238 153
532.2443 245
534.2549 137
537.2364 183
546.2551 160
546.4047 702
547.4144 300
550.2324 110
553.2724 122
554.2514 1585
555.2559 528
559.3346 135
563.2679 156
568.2672 117
573.2639 385
574.2531 118
575.273 154
582.3399 129
587.2056 134
591.2821 324
595.2395 236
608.7906 153
614.039 141
614.3697 117
617.7931 166
618.3018 134
642.3842 127
673.3311 154
682.8292 102
700.2904 164
717.3102 3217
718.3114 1481
719.3154 262
720.3191 239
721.3208 131
750.4581 153
756.1216 149
756.4512 152
757.4563 120
760.7158 127
760.956 220
761.2185 156
762.4644 102
764.454 109
765.2169 124
765.4681 159
767.315 489
768.307 208
775.3672 132
775.8669 153
778.469 447
778.802 316
778.9717 257
779.146 283
779.4784 241
781.4714 238
781.6795 182
781.9714 273
782.2206 424
782.4725 423
782.7288 307
782.9758 267
783.2228 266
783.4775 441
783.4876 395
783.7229 164
783.9774 171
784.1557 154
784.3429 169
784.4578 1150
784.4941 218
784.8065 473
784.9574 785
785.1412 397
785.4023 732
785.466 650
785.4811 202
785.9756 273
786.2216 188
786.407 312
786.4802 467
786.729 426
786.9809 333
787.2342 237
787.3251 884
787.4831 461
787.9845 157
813.3719 144
830.3948 2242
831.402 907
832.4127 296
833.4065 140
977.4605 1619
978.4631 1089
979.4701 360
1064.4938 1411
1064.4949 1357
1065.4908 979
1066.4891 382
1066.508 259
1067.4847 149
1103.5029 400
1104.501 235
1121.5048 6366
1122.5118 3687
1123.5219 1569
1124.5304 416
1234.5942 1757
1235.5953 1160
1236.602 440
1237.6138 190
END IONS
BEGIN IONS
TITLE=Spectrum 1BSA_EYEATLEECCAK_01-1000counts_9000MSres-export.csv DRIFT_TIME=16.081 16.2152 16.0881 16.0224 16.1046 16.108 16.0701 16.1469 16.2406 16.2657 16.166 16.2418 16.2351 15.983299 16.3137 16.1792 16.1844 16.2105 16.3264 16.3111 16.2026 16.7329 16.2398 16.2794 16.2273 16.4064 16.246 16.5071 16.3364 16.706 16.4456 16.4755 16.5281 16.5225 16.4326 16.7853 16.7579 16.6043 16.5237 16.7019 16.6752 16.7662 16.9062 17.076 22.0432 17.1968 16.9472 16.8662 17.5614 17.4695 17.4325 17.5463 18.1631 18.2692 17.8437 27.8093 17.9189 22.2982 17.3099 19.4524 19.5757 20.1486 19.1179 19.0192 16.6252 19.405 18.6672 17.5731 16.4685 16.9115 23.1642 29.8528 29.5889 18.067 32.8252 33.5262 16.4355 20.4518 19.3815 20.92 32.0468 22.2135 19.124 34.8015 35.1331 36.6459 20.1491 17.627 23.5322 25.3245 23.2834 25.8427 25.7456 19.3962 30.2303 29.7877 25.0512 27.4458 27.3562 27.7243 28.2771 25.0739 27.5524 27.5186 16.5133 24.585 16.8248 30.3411 29.5359 28.6474 17.0518 31.2551 26.7305 22.0506 28.8843 29.2409 30.3141 30.8949 31.243202 31.429703 26.9056 25.3649 29.4092 31.3731 29.1023 28.6916 37.4418 32.3637 31.895203 34.06 33.9082 32.8539 33.0646 31.535301 34.9668 37.0729 19.3808 19.924 36.1137 36.489 32.5334 31.0728 39.2101 34.3059 40.3115 23.9838 23.1578 43.1084 25.8825 37.5641 51.9394 51.8907 45.4999 51.9669 43.2975 30.0298 45.691 45.4775 41.1338 45.9928 42.9891 52.9925 44.0471 43.1964 47.3452 47.4593 50.939 46.8177 52.1813 52.0681 58.86 50.2531 56.172 49.4417 59.27 52.9369 61.0874 50.9152 52.6442 52.0928 49.614 47.1733 54.021 50.1374 58.1527 58.219 60.0342 61.6842 65.8097 66.8724 60.5935 63.893295 61.4444 62.9723 61.2046 77.6318 77.7878 77.3759 78.7445 57.0971 66.3471 65.6823 38.1067 64.9011 42.3412 43.0596 40.8664 41.0937 42.7194 42.9873 43.2229 70.9826 46.8238 71.7498 46.4202 44.25 47.4777 47.7908 47.2048 45.5237 45.3259 48.4441 48.0522 49.8077 49.7105 49.2602 49.9905 44.6685 49.7289 91.9448 49.2634 47.401 46.5546 45.9684 46.7558 45.8741 72.0709 46.3092 87.1786 46.0688 72.2047 47.279 87.0915 106.02 50.0886 71.9273 47.5273 88.2034 106.3352 49.4898 49.1816 72.0462 44.381 49.1125 85.8766 103.1739 43.7886 71.5366 44.1271 89.0769 80.2435 77.9789 79.1809 97.2313 99.8684 113.6185 113.7759 114.5228 126.3655 
PEPMASS=751.8135
CHARGE=2+
101.0525 910
102.0471 568
111.0346 2096
112.0167 1202
113.0505 233
114.0823 1667
119.076 562
120.0716 618
127.0672 276
129.0452 335
133.0747 386
136.0639 1706
137.12 3475
138.0809 178
138.1245 527
147.0683 1502
148.072 173
155.057 4597
156.0613 527
164.0937 182
169.0692 324
171.1241 238
173.0618 8719
174.0698 1055
175.0732 291
177.0973 285
183.0608 165
184.0595 163
187.0806 1531
190.1068 154
193.0814 231
195.1026 285
199.0867 339
201.0311 292
203.0466 592
206.1166 169
213.0958 502
217.0877 3983
218.0943 501
219.039 7304
220.0445 1300
221.0446 275
226.0903 391
227.1084 202
227.1822 475
229.0202 229
231.103 1293
232.1096 223
237.0664 1968
238.0702 288
243.1107 215
245.1188 418
247.0884 1351
248.0878 231
254.1188 204
255.2105 542
259.0712 152
259.1463 280
261.1091 333
263.0809 364
265.0962 1988
266.0973 413
268.133 837
269.135 207
272.0965 145
273.045 159
275.0771 304
277.0737 191
278.0657 151
279.1059 154
281.0923 615
281.2242 892
282.2315 211
283.1497 155
283.2383 977
284.2394 149
285.0691 203
286.1445 293
287.1274 160
293.0857 245
295.2366 134
303.1159 373
305.1328 129
309.253 3127
310.2577 799
311.2663 164
321.0967 315
325.6643 149
327.1155 207
328.149 434
331.1492 152
335.0946 682
336.0928 134
338.6787 138
340.12 306
341.1213 113
345.1237 6377
346.1533 18513
347.1597 3977
348.161 646
349.1027 172
357.0479 148
359.1406 2258
360.139 437
364.0927 269
365.1363 167
371.1015 284
373.1543 570
374.156 173
375.163 142
378.1113 181
378.1503 345
381.1245 121
381.2037 117
383.0709 116
385.1072 150
389.1459 1538
390.1514 313
391.1186 879
392.1201 202
393.1773 164
394.2011 172
395.1386 147
399.1235 239
401.0765 678
402.0764 149
403.1071 419
403.1662 455
404.1104 261
405.1289 109
407.0566 235
409.1256 841
410.1295 214
415.0941 378
417.1764 414
422.1231 284
433.5586 104
434.2336 119
435.1429 236
436.1493 117
437.197 163
449.7372 168
453.1488 272
462.7419 127
463.2189 110
470.5805 113
471.2566 127
475.1726 148
479.9179 118
481.2254 189
482.267 22038
483.2712 8010
484.1496 144
484.2794 1499
487.1749 130
516.9426 139
517.1875 1030
518.1937 350
518.2729 121
519.1889 125
525.2496 158
526.1388 434
527.1762 165
529.1191 119
531.2028 767
532.2063 281
538.1681 447
539.1279 119
539.1681 126
540.1558 128
540.2476 299
545.2116 490
546.1322 124
546.2161 178
556.2525 130
558.1685 231
558.2638 503
561.2094 509
562.2083 131
563.1813 348
571.1801 160
573.1442 199
576.1896 155
587.1539 151
589.2441 294
590.237 105
597.1903 168
598.2052 149
600.2592 130
602.2806 443
611.2112 107
614.2062 144
615.2086 167
616.2286 136
618.1956 134
618.381 10631
619.3864 4517
620.3879 949
621.3955 161
625.2188 114
640.1217 130
667.2036 565
667.8519 132
668.205 179
701.3615 139
701.8708 110
706.8335 206
707.3279 141
710.3704 130
710.8771 147
711.3735 119
717.271 231
718.0528 216
718.2925 131
718.3806 108
724.0521 114
729.6291 120
729.8894 211
730.1405 118
743.8822 177
744.3926 172
746.0605 328
746.3976 378
746.7333 272
750.6364 155
750.8947 354
751.1452 240
751.384 251
751.3976 354
751.4581 261
751.6501 139
751.8814 200
752.0672 276
752.4019 467
752.7445 267
752.8877 208
753.2623 2999
753.3911 303
753.4199 2782
753.891 154
754.2674 1269
754.4011 176
754.4279 1146
754.4995 2432
755.1452 172
755.2388 1209
755.3991 305
755.4195 428
755.5013 1238
755.6418 227
755.8933 131
756.2404 538
756.3632 205
756.4208 160
756.4284 148
756.5104 352
756.8574 207
757.2644 3083
757.3685 110
757.4135 137
796.2352 686
797.2276 297
798.2237 131
909.305 509
910.3071 257
1010.3454 340
1011.3764 184
1012.3552 166
1081.3793 260
END IONS
BEGIN IONS
TITLE=Spectrum 1BSA_EYEATLEECCAK_02-1000counts_9000MSres-export.csv DRIFT_TIME=16.039 16.1211 16.032 16.0919 16.0433 15.986 16.0897 16.1724 16.1657 16.1924 16.2394 15.957001 16.2778 16.2653 16.2714 16.2301 16.2368 16.2549 16.2536 16.628 16.2701 16.1919 16.3021 16.3059 16.3985 16.415 16.5586 16.383 16.4737 16.362 16.7141 16.8221 16.6341 16.62 16.6286 16.7794 16.6346 16.9336 16.9529 22.4247 17.5918 16.9672 16.952 17.6049 17.6287 17.2356 17.5653 18.4058 18.0814 25.6074 17.8034 27.7851 17.8579 22.0324 17.857 19.222 19.7911 26.0166 19.9057 19.345 18.9777 18.9605 17.8272 16.6486 23.4011 29.7974 30.0076 18.607 33.204 32.9622 16.379 20.6757 19.4071 21.1119 32.3624 35.425 22.1825 19.1246 32.1189 34.8197 34.9106 36.9103 20.2134 23.9999 21.4079 25.0072 23.9135 26.0354 29.461 25.2197 27.6618 27.73 27.2129 28.4678 22.3071 25.979 27.6827 27.8338 27.1534 16.7117 24.6664 16.8165 30.2908 29.7521 29.1489 32.0445 27.7927 30.5753 30.8249 31.473198 31.404602 24.9329 30.0711 17.1437 32.193 29.0946 37.6675 32.7007 32.7159 32.9464 33.4054 33.0788 33.4718 31.6195 35.1745 39.0502 36.1114 34.3843 36.7251 19.6095 36.3653 32.7402 37.8575 31.720398 39.7037 38.2621 43.3499 23.693 42.0235 24.535 37.5583 52.1344 52.0524 46.4743 52.5813 26.8446 51.9272 43.3369 48.2837 46.0382 23.0235 30.367 45.5908 30.3422 45.7404 46.2957 30.5432 44.0438 32.3503 52.7873 53.3674 47.6831 29.5986 47.4741 51.736 58.6411 50.0825 55.8715 49.6782 30.4974 33.172 34.1063 32.7087 59.1467 53.0346 61.4405 30.8958 55.1852 52.0203 51.6262 52.2717 52.4435 49.7535 50.8198 47.3818 55.4354 54.7706 33.9517 52.7559 34.7827 50.828 57.4324 57.3268 59.1164 59.2013 62.6044 67.3382 64.147 67.2924 66.0346 59.4371 64.3788 64.8317 63.8723 60.078 77.7963 78.182 68.2007 77.7328 80.7934 58.6293 67.3561 42.0875 41.9575 41.7639 42.4566 42.0981 42.2375 38.9137 64.1919 39.3177 65.2325 39.0272 64.692 38.7263 65.1867 65.5264 68.249 68.2826 68.5585 46.2669 47.5952 45.2163 42.4647 42.6657 40.6517 40.9171 44.3887 42.4758 43.1159 42.4726 71.155 45.8517 45.7334 73.3315 46.3489 71.5931 45.952 46.2255 45.7567 47.7314 47.5882 47.1866 47.4224 48.0981 73.0505 48.2812 40.2686 47.4774 47.3934 47.9816 47.8977 73.5031 83.5861 46.0214 45.5937 46.3486 47.7173 49.0223 48.8291 49.1578 49.4599 49.6084 49.7571 49.2633 50.133 49.4607 49.481 49.3094 90.3486 49.8213 47.1228 47.9577 46.7688 47.0934 85.9452 46.344 46.4899 46.8017 72.3988 46.488 88.0424 51.6825 45.8345 49.4687 72.0776 47.2425 87.2143 106.1091 49.9929 47.2184 50.1012 71.764 49.4011 87.4883 106.5611 49.7644 49.8767 49.6566 72.2322 44.0038 48.2889 106.291 45.7431 43.86 46.1747 71.3334 44.4714 87.1488 79.6908 78.9472 81.0251 107.1701 97.4618 97.8302 98.0552 114.5743 112.2043 127.9133 
PEPMASS=751.8135
CHARGE=2+
101.0537 852
102.0474 621
109.0937 179
111.0363 1596
112.0186 1607
113.0526 228
114.0834 1306
119.0768 361
120.0727 493
129.0462 259
133.0763 528
135.1092 148
136.0666 1531
137.1232 2672
138.1272 343
147.0702 1417
155.059 3950
156.0616 384
169.075 259
171.1262 221
173.0666 8480
174.0729 1064
175.0763 295
177.1001 370
187.0845 1366
188.0875 241
193.0816 216
195.1004 352
199.0775 244
201.0382 264
203.0474 544
206.1236 197
213.0992 475
217.0914 3925
218.0948 436
219.0426 7022
220.046 1354
221.0449 214
226.0954 286
227.1854 511
229.022 261
231.1056 1304
232.1067 236
237.0701 1725
238.0744 225
243.1051 209
245.1228 405
247.0904 1244
248.094 237
253.199 119
254.1213 179
255.215 658
257.056 141
259.149 235
261.1182 286
263.0808 320
265.0994 2064
265.2342 117
266.1017 398
268.1332 883
269.1393 192
275.0853 310
277.078 158
278.0668 153
281.0943 543
281.2266 1135
282.2302 207
283.151 156
283.2415 1102
284.248 212
285.0763 187
286.1482 224
287.131 239
293.0944 276
295.243 151
297.2621 119
303.1191 345
305.1403 162
307.2432 140
309.2572 3291
310.2611 979
311.2788 170
321.1036 249
327.1173 150
327.1789 160
328.1541 397
331.1516 169
335.0991 700
340.1215 245
345.1285 7372
346.1593 15581
347.1644 3259
348.1662 455
349.1185 202
349.1594 108
357.0655 184
359.1449 2512
360.1489 562
361.1457 133
364.0991 199
365.138 131
371.1034 298
373.1618 702
374.1572 187
375.1754 236
378.1546 350
381.1247 102
389.1527 1744
390.1565 431
391.1212 1125
392.1328 266
394.2104 150
395.1323 121
397.2137 119
399.1475 192
401.0837 668
403.1178 557
403.1705 601
404.119 391
405.1274 164
407.0652 166
409.1295 963
410.1366 241
415.098 347
417.1834 482
418.1688 155
418.189 137
419.2059 154
422.1289 303
433.5662 113
435.1504 218
437.2035 167
438.1758 120
449.7397 129
453.1568 318
463.226 169
465.1551 166
471.2543 114
475.1593 233
476.5913 108
481.2289 150
482.2747 22710
483.2796 7983
484.1512 183
484.2868 1401
485.256 121
485.2935 118
487.1796 137
489.2084 110
493.1648 145
496.7661 105
516.9481 127
517.1941 1445
517.2786 124
518.1967 504
519.2009 162
522.2727 103
525.2504 152
525.6129 112
526.1464 403
527.1506 124
531.2088 1034
531.2917 111
532.2029 276
538.1785 489
540.259 244
545.2231 778
546.1469 188
546.2304 194
551.2861 128
553.633 125
553.9687 102
554.3037 119
556.2584 119
558.1915 234
558.2672 592
558.8011 186
559.1847 127
561.2203 577
562.2204 215
563.1905 405
564.1962 105
569.2749 126
571.1899 126
573.156 197
576.1966 283
577.2044 107
579.0671 109
581.1946 115
586.3197 116
587.1613 134
589.2384 375
590.2377 155
596.214 111
597.2133 157
598.2112 120
600.2857 170
601.2719 109
602.2916 632
603.2903 141
611.2194 103
614.2066 151
615.2155 262
616.2178 220
618.2057 161
618.3909 14210
619.3971 5976
620.2902 162
620.4015 1286
621.4125 162
625.2235 184
640.1309 193
644.1027 127
644.3451 127
644.5984 116
648.3431 131
648.6003 193
648.8543 134
658.8531 117
659.2357 147
659.3453 123
667.2082 561
667.854 236
668.1999 173
668.3624 186
669.1904 106
673.2538 124
689.2604 164
690.266 120
691.26 149
696.4448 112
696.9452 169
697.4627 137
701.3742 216
701.8786 163
706.8326 338
707.339 236
708.3824 120
710.3901 322
710.8879 307
711.3904 140
717.2874 400
717.7259 187
718.0587 215
718.2949 196
718.3851 138
719.2784 102
723.7179 163
724.0626 202
724.4062 124
729.3963 208
729.6406 245
729.8978 296
730.1452 185
730.3928 122
733.2497 107
733.4014 113
733.757 109
733.8935 155
734.1552 271
734.4027 187
734.6476 147
735.2545 151
738.4682 123
743.8994 281
744.3988 267
744.9025 195
745.4106 173
745.7288 163
746.0734 511
746.4038 678
746.7417 503
747.081 272
747.4072 191
750.399 206
750.6568 416
750.9043 732
751.1575 732
751.41 749
751.4624 261
751.6655 217
751.7482 258
751.9048 327
752.0744 676
752.4066 1041
752.4612 166
752.7403 419
752.9034 619
753.0773 273
753.2696 3966
753.4093 717
753.4325 3199
753.493 142
753.9105 337
754.1644 195
754.2761 1698
754.4071 344
754.4363 1221
754.5078 4746
754.6592 337
754.9051 301
755.1604 589
755.2426 2011
755.411 837
755.439 372
755.5122 2286
755.6647 703
755.9152 376
756.1658 197
756.2414 702
756.3717 487
756.4067 370
756.5132 690
756.7451 152
756.874 340
757.0802 130
757.2703 4461
757.3876 260
757.4099 140
796.241 970
797.2424 422
798.2344 149
900.4444 147
909.3153 739
910.3175 290
911.3209 170
1010.3608 661
1011.3592 298
1081.386 405
END IONS
BEGIN IONS
TITLE=Spectrum 1BSA_HPEYAVSVLLR_01-1000counts_9000MSres-export.csv DRIFT_TIME=15.922199 16.0139 16.0493 16.0143 15.893 16.1843 16.1064 16.061 16.1662 16.1735 16.0896 16.1303 16.1703 16.243 16.1301 16.2341 16.0214 16.2867 16.4377 16.2017 16.0272 16.2062 16.2078 16.1526 16.3241 16.3275 16.077 16.5617 16.2378 16.2566 16.3377 16.3312 16.3617 16.4359 17.199 16.2516 16.3236 16.4698 16.3662 16.8705 16.6734 16.515 16.4311 16.5407 16.4648 16.4503 16.6464 16.5927 16.8672 16.6353 16.8545 16.9394 17.9486 16.8507 17.0277 17.1439 22.5252 16.9297 17.5218 16.9754 17.0462 16.8362 17.6114 17.5047 17.5513 18.7537 16.8162 17.7845 18.7387 17.1012 17.4333 17.9341 27.9348 27.9284 17.9819 17.7683 17.5253 20.3142 18.7742 20.8341 16.6489 17.7021 16.572 17.0925 23.2765 29.5319 32.9381 33.446 16.5634 17.0812 20.0055 21.8819 21.4026 21.5226 19.0512 35.0562 35.0272 36.5539 17.4486 24.0961 24.969 26.4151 26.6329 19.1451 28.2806 25.2339 25.2417 25.0184 31.4197 27.8824 25.7995 25.984 27.5381 27.9883 16.5553 16.6874 31.704002 24.0027 27.6798 30.7423 33.8046 28.1873 17.0504 33.8384 17.0435 29.3867 17.3667 28.7747 37.4191 32.3163 30.5143 30.8937 32.3666 25.4151 30.7916 29.1644 41.9715 28.2824 33.4343 18.1417 18.4461 28.4325 17.6701 17.7514 31.8783 32.5933 26.8673 21.8176 37.3417 39.5956 40.8594 40.6318 48.068 47.9196 45.3957 51.6086 51.0928 56.246 56.9704 56.3863 45.1837 52.7677 43.0552 47.3949 47.6332 46.1371 55.4833 33.2692 50.278 66.5734 67.6714 37.0899 37.1472 37.1 67.5546 83.3929 71.8496 38.0433 83.422 59.9023 79.208 59.9753 59.9579 31.412498 79.565 61.0682 79.2806 86.7909 89.2723 122.8982 120.3116 135.0119 136.1967 159.0042 
PEPMASS=642.3615
CHARGE=2+
100.0476 371
101.056 1058
110.0671 2908
111.0407 2490
111.0715 228
113.0545 333
114.0869 9313
115.0909 732
119.0817 383
120.0795 270
121.0977 162
127.0711 422
129.0506 290
131.0803 149
133.0799 286
136.0713 497
137.0568 231
137.1283 306
138.086 204
147.0753 1147
152.1023 157
155.0636 7755
156.0697 484
158.0832 143
164.1006 214
169.0818 433
170.0889 150
171.1299 230
173.0722 10855
174.0759 1048
175.043 228
175.1124 711
177.1048 243
181.0891 576
185.004 144
186.0758 205
187.0898 1546
188.0918 182
189.0343 165
190.1162 158
192.0965 167
193.09 359
195.1095 254
199.0971 820
200.1006 183
201.0407 316
203.0556 647
213.1036 1102
214.1078 206
217.098 2949
218.1032 288
219.0589 3513
219.1652 284
220.0537 535
226.1056 170
227.097 351
227.1913 355
228.1171 186
229.0313 562
231.1174 649
233.0637 352
234.0857 1348
235.1085 1866
236.1113 350
237.0785 441
237.1515 337
239.1372 168
243.0457 204
244.1569 148
245.0658 171
247.0417 149
247.0952 168
255.2226 1014
256.2239 240
257.0637 317
259.08 356
261.1224 216
263.0926 483
265.1005 192
271.167 147
272.1108 334
277.0828 303
278.0789 310
279.1209 359
281.1012 448
281.2369 195
283.2531 417
284.253 133
285.0848 308
286.1276 206
291.0642 356
301.1775 143
303.0646 1015
304.0741 208
305.1463 368
309.2677 2633
310.2721 647
311.2732 168
325.6847 138
327.1331 461
328.1233 158
335.1104 3063
336.1163 684
338.689 226
340.133 215
345.14 5822
346.139 1692
347.1461 296
349.04 225
349.123 140
357.0726 930
358.0806 128
359.1602 612
360.1641 184
360.2088 142
364.1118 314
366.1474 270
367.116 112
368.157 823
369.2241 495
370.2122 292
371.0909 383
371.1156 512
371.209 126
371.6187 176
373.17 148
378.1175 209
383.0892 220
384.2497 127
385.1667 318
389.165 708
390.158 411
391.1478 149
394.2222 124
397.1014 187
401.0986 1102
401.2761 135
402.0997 276
403.18 270
405.9003 163
406.2398 112
407.2328 152
414.0118 254
414.5101 143
415.1108 700
416.1177 168
425.1266 123
442.918 110
451.1021 278
455.1737 106
461.1872 298
473.1827 107
479.2323 506
480.24 130
483.1687 119
488.2453 381
489.2585 143
505.3462 1305
506.3447 569
507.3535 169
517.2121 335
527.1767 127
529.141 244
531.2256 1649
532.2239 387
543.1614 192
560.2469 151
573.8016 140
587.1748 146
587.3609 342
588.3815 135
633.3252 1158
633.8254 930
634.3319 448
641.3517 225
641.4624 627
642.3248 147
642.3377 143
642.4723 363
643.3013 31730
643.4681 126
644.3073 11293
645.3074 5460
645.3193 213
645.4702 412
646.3188 232
686.4298 366
757.4661 469
758.4714 172
920.5213 496
921.5267 337
1049.5676 333
1050.573 212
1146.616 455
END IONS
BEGIN IONS
TITLE=Spectrum 1BSA_HPEYAVSVLLR_02-1000counts_9000MSres-export.csv DRIFT_TIME=16.0579 16.0861 16.4327 16.1614 16.0625 16.0911 16.007 15.9655 16.0983 16.1826 16.1132 16.0772 16.1948 16.175 16.2888 16.2683 15.955799 16.2205 16.2079 16.111 16.1871 16.1114 16.1355 16.1187 16.197 16.2026 16.2796 16.1947 16.291 16.2546 16.0566 16.2088 17.0922 16.2559 16.3051 16.3809 16.2529 16.3079 16.1809 17.0274 16.2113 16.3598 16.2929 16.4938 16.8345 16.3795 16.4753 16.4807 16.5725 16.3711 16.5516 16.9868 16.7443 16.6358 16.7399 16.9394 18.0517 16.7952 16.8747 16.8782 22.7441 17.0816 17.3192 16.8772 16.994 16.9923 16.7872 17.7514 17.344 17.5928 18.6531 18.1286 16.9109 17.3945 27.951 27.7697 17.9296 17.8968 17.2726 20.3148 19.7398 21.4167 16.7828 16.6696 17.7271 16.6687 16.6946 23.785 16.9789 33.4554 16.3503 18.025 24.288 20.1456 20.9401 21.4018 21.6458 18.8666 35.004 35.5715 23.9102 25.2265 26.2808 26.0734 28.9015 25.1882 25.1926 26.8275 32.3985 25.8257 25.1406 27.5642 31.313698 27.9687 31.014 31.6039 27.9765 16.8867 29.0009 37.7057 32.4573 31.271599 30.559 30.8745 30.7681 29.1857 29.1251 33.5765 31.8121 37.3242 41.0852 40.257 47.6875 55.6255 56.5355 43.3276 47.2862 55.9979 65.374 66.3115 83.2706 60.0072 60.033 59.8913 31.1461 80.6575 
PEPMASS=642.3615
CHARGE=2+
100.0458 331
101.0573 837
105.0666 173
107.0449 153
110.0681 2945
111.0405 2481
112.0451 154
113.0561 478
114.0869 9444
115.0904 560
119.082 450
120.0789 300
127.0712 544
128.0683 148
129.0522 222
129.099 171
131.0829 187
133.0827 163
136.0726 887
137.0555 207
137.1299 242
138.086 286
147.0753 1199
148.0792 196
150.087 150
155.0636 8372
156.0711 630
157.0972 196
158.0886 240
159.1091 181
162.0849 264
164.1025 313
166.9979 149
173.0715 9483
174.0799 940
175.0461 302
175.1132 759
181.092 615
183.0699 151
185.0051 272
186.0801 348
187.0912 1011
188.1029 203
189.0382 256
190.1171 229
192.0999 192
193.0913 424
195.1061 272
199.0984 970
201.0415 481
203.0566 633
207.1082 199
213.104 837
217.0995 3008
218.1049 321
219.0587 3726
219.1679 390
220.0638 612
226.1066 169
227.0973 470
227.1939 253
228.1178 167
229.031 1048
231.1194 489
232.1261 132
233.0625 502
234.0891 874
235.1119 1176
236.1121 246
237.0771 442
237.1574 173
243.0475 226
245.0619 190
247.0421 264
255.2248 664
256.2285 140
257.0671 438
259.0793 391
261.1458 209
263.0932 584
265.1098 360
271.1676 238
272.1143 240
274.1561 146
277.0817 326
278.0799 294
279.1249 179
281.105 500
283.165 159
283.2529 279
285.0898 159
286.1256 114
288.1929 115
291.0705 302
301.1811 125
303.0675 623
304.0793 193
305.1487 272
309.2688 1474
310.2746 311
327.1296 256
328.1291 142
335.1126 1692
336.1149 329
340.1331 162
345.143 3134
346.1435 1150
347.139 162
349.0459 196
357.0738 920
358.0818 110
359.1626 300
366.1451 260
368.1556 345
369.2261 951
370.2244 263
371.0888 223
371.1161 165
383.0911 232
384.246 153
385.1752 149
389.1688 265
390.1577 487
391.1584 172
397.1041 243
401.1011 1059
402.1071 201
403.1819 151
415.1162 518
451.1081 141
461.1824 252
462.1966 119
479.2362 132
505.3489 872
506.3536 439
529.1395 131
531.2201 182
560.2511 128
587.3622 258
641.346 105
641.4718 168
643.3055 14578
644.3125 4841
645.3157 2118
645.3273 127
645.4753 256
END IONS
BEGIN IONS
TITLE=Spectrum 1BSA_LGEYGFQNALIVR_01-1000counts_9000MSres-export.csv DRIFT_TIME=15.9813 16.068 16.0426 16.0668 16.1469 15.941101 15.9333 16.1048 15.9564 16.0768 15.951599 16.0074 16.0342 16.1301 16.237 16.1065 16.05 16.1783 16.1029 16.231 15.968899 16.1381 16.221 16.2329 16.333 16.0693 16.2694 16.1695 16.1816 16.165 16.185 16.305 16.2093 16.2473 16.2738 16.2572 16.3719 16.2539 16.3136 16.4396 16.5735 16.2649 16.1468 16.3593 16.3425 16.3579 16.3452 16.0669 16.2493 16.454 16.3679 16.1137 16.4965 16.5656 16.2764 16.3479 16.5881 16.5402 16.5541 16.4515 17.1355 16.4115 16.6118 16.6265 16.5542 16.7027 16.7411 17.1804 16.8377 17.0926 22.3127 17.0478 17.4816 16.8903 16.8344 17.216 17.3094 17.1286 17.5434 18.3476 18.4867 27.3881 18.6678 18.377 21.7451 18.1409 17.8701 19.8048 20.3206 21.4979 18.701 21.649 17.7664 16.5602 16.4636 17.1041 23.3759 29.4779 20.426 33.055 16.5861 20.2875 16.615 20.2595 24.4312 21.9904 23.3335 22.6241 22.6866 21.9949 23.2093 18.4324 31.6114 34.385 34.4357 36.2564 22.9914 20.3632 26.807 24.7842 24.8662 25.4623 17.6535 24.6378 25.7209 29.026 23.7923 21.2254 24.884 24.7397 24.6913 28.3107 25.5623 26.1155 25.3322 27.2883 27.1579 26.9261 35.237 16.5407 16.8249 23.053 23.6832 32.8011 27.7683 16.7944 16.7757 26.4368 29.9298 36.4831 28.8972 16.8399 30.9341 26.6334 35.5367 26.6331 27.9072 28.0506 28.8535 36.4172 36.4399 30.349 31.855698 32.1924 29.2195 30.413 18.5952 18.7069 31.207298 30.5888 28.7528 37.6399 29.0131 35.7605 32.5419 31.934097 33.7583 42.1123 31.3933 31.4304 36.4273 37.4272 35.7403 34.1272 34.2464 39.8291 34.8403 40.9541 40.2398 46.2845 46.39 36.8542 39.4012 39.9948 41.1734 50.7468 52.6998 23.6362 45.6699 44.1932 45.1484 44.97 24.503 24.1141 50.1155 47.0933 46.1496 47.1572 41.3344 47.0065 55.4242 43.7405 55.3246 48.0699 49.2598 47.9426 41.1199 41.4578 53.303 45.2573 46.8833 46.1655 51.0739 48.2136 51.3913 43.7441 43.289 42.0441 47.0118 47.4048 45.5469 45.1871 48.9019 50.21 46.4965 46.8119 52.8549 64.1556 56.9688 52.9296 48.8069 63.8012 48.3858 63.8058 73.1654 46.6251 54.1174 53.3064 49.7516 31.334602 59.1012 49.4727 31.388397 60.9348 31.237099 57.962 56.293 56.3037 78.3567 64.4382 59.9635 68.2671 54.0846 63.383698 65.5832 67.522 72.5523 72.2933 73.4532 74.0967 73.5476 74.1245 78.1833 77.8347 79.1313 44.781 83.3427 45.7374 43.8301 44.07 44.7864 68.2894 44.9472 83.789 45.0788 68.2628 37.6975 41.9426 82.9599 38.1962 68.0354 37.9811 41.9958 84.8635 44.1724 68.115 44.2419 43.2914 68.3142 49.9256 68.2159 67.0179 74.5061 90.7943 84.899 84.3253 82.7478 89.5065 88.7425 88.5481 89.9551 88.8718 113.3193 114.2617 112.5753 117.9701 122.7356 121.7155 122.8148 123.4158 124.1807 121.9287 143.7315 146.1552 150.2013 141.8745 170.8532 174.0596 
PEPMASS=740.4035
CHARGE=2+
101.0452 842
102.0394 1939
103.0407 255
105.0275 175
107.0327 571
109.0115 219
110.0527 164
111.0275 1545
112.0306 162
114.0751 1190
116.0524 244
119.0322 530
119.07 366
120.0628 3055
121.0666 415
123.0257 220
127.0197 378
129.037 357
130.0307 480
130.0759 170
133.0673 466
135.0349 233
136.0553 4831
137.0584 454
137.1142 180
141.0474 258
143.097 500
147.0585 1113
148.0563 295
152.0846 218
155.0474 2869
156.0525 385
156.0786 282
158.0682 383
159.052 322
160.0734 163
164.0831 182
169.0618 470
170.0209 261
171.0879 1670
172.0889 196
173.0546 5329
174.0588 974
175.0935 1970
176.0928 213
177.0807 698
178.0941 221
183.0461 164
185.0321 203
186.0589 360
187.0674 1794
188.0713 291
189.0153 134
193.0678 393
195.0846 287
199.0688 221
201.0164 266
202.0557 183
203.0314 929
204.0395 154
204.1076 187
205.0643 224
213.0816 749
217.0748 1955
218.0807 407
219.0274 2091
220.0287 276
221.0558 352
226.0718 290
227.0979 444
227.169 407
228.0893 360
229.0043 446
231.0884 1394
232.0923 292
233.0479 314
237.0546 209
243.0212 385
243.077 278
247.0721 940
254.1024 150
255.1938 188
257.1222 350
259.059 167
259.1319 209
261.0905 401
263.0474 307
265.0781 1029
272.1194 391
274.1466 1897
275.0591 438
275.1502 296
277.0567 714
278.045 401
278.5497 122
279.0858 228
281.0705 240
281.2051 227
282.1009 197
283.2244 383
285.0528 368
286.1207 215
292.0613 203
293.0713 395
295.0992 195
297.0727 168
299.1269 316
300.1126 1463
301.1186 236
303.0913 118
304.083 151
305.1052 213
307.2199 131
309.2325 3129
310.2369 752
311.2499 178
314.1036 261
321.0781 217
322.1002 113
328.1278 172
329.131 279
330.1299 151
330.6511 118
332.0744 187
335.0728 403
340.096 423
341.0737 619
343.0458 144
345.104 2700
346.1093 971
347.1046 237
349.0865 548
350.0852 512
355.085 252
357.0335 794
359.1164 1501
360.1185 738
361.123 170
362.1172 195
364.0703 352
364.5718 126
365.0983 479
367.0818 233
370.191 235
371.0448 262
371.0756 486
371.5815 151
372.1191 128
373.1306 561
375.0952 123
375.1456 159
378.0823 232
379.1007 196
381.0976 953
382.0341 195
382.1008 166
383.0439 193
385.0869 1322
386.093 243
387.2158 1661
388.2146 407
389.1252 423
390.118 214
391.0994 189
395.1077 329
397.0626 141
398.1859 288
398.681 182
399.1049 935
400.0978 141
401.054 2047
401.2164 105
402.0626 259
402.1413 314
403.1377 434
404.139 251
407.1004 400
410.2273 120
415.0658 737
416.0703 149
417.1627 185
418.1359 145
423.1206 122
425.1178 742
426.1164 146
427.1681 181
429.0736 110
435.164 413
436.164 170
436.2436 415
437.2436 113
451.0556 254
452.1216 144
453.1318 111
463.1479 225
465.2341 114
466.2365 123
472.1933 224
474.1637 180
475.1488 248
476.1789 110
478.1474 128
480.7081 138
481.2076 124
483.2621 108
488.1627 668
489.1597 201
492.1728 235
495.0766 244
496.1536 398
500.2841 1382
501.1342 147
501.2835 368
502.1539 126
508.1513 122
509.1484 137
513.1213 999
514.1227 238
514.2907 182
517.1526 288
518.1581 461
519.1672 126
520.1589 129
523.2081 116
526.1533 245
527.1318 687
528.1448 144
529.0812 352
531.1655 605
532.1709 400
539.1318 132
543.0973 124
553.1483 1052
554.1518 359
557.1349 634
558.1387 166
559.1932 119
564.1387 190
566.1867 220
567.1709 136
571.1513 833
571.3095 1666
572.1593 200
572.3148 488
572.3515 236
573.1003 536
575.1973 107
576.1803 120
581.1517 102
582.2266 117
586.2078 156
587.117 187
590.7359 221
591.2168 123
591.2458 136
593.1668 125
597.1638 700
598.1722 177
602.3511 127
609.22 116
614.1987 169
627.3596 227
629.2094 285
631.2316 155
639.2166 112
667.198 101
668.3175 204
679.2674 138
685.3365 2754
686.336 1190
687.336 233
696.3056 117
697.9656 534
698.9631 497
699.9566 176
720.8046 118
722.43 278
730.3491 108
733.2842 309
733.7895 256
738.856 156
739.1957 9109
739.3557 252
739.3565 247
739.85 141
740.2054 4707
740.2782 759
740.3217 588
740.4151 261
740.7862 671
741.1869 1925
741.2789 245
741.3251 163
741.4148 201
741.8012 169
742.1811 634
742.3196 175
742.8284 117
743.1966 9330
743.2921 178
744.2011 3473
745.1791 613
745.3075 7520
745.4019 226
795.3646 175
796.3489 661
797.3556 328
813.373 2801
814.3774 1360
815.3871 418
816.3847 128
824.3446 140
960.4227 1386
961.4264 732
962.4245 213
962.4258 221
1000.4146 252
1001.4089 174
1017.4333 3447
1018.4316 2037
1019.4339 782
1020.4252 173
1180.4749 941
1181.4808 689
1182.4788 261
1182.4847 266
1366.5067 369
1367.516 266
END IONS
BEGIN IONS
TITLE=Spectrum 1BSA_LGEYGFQNALIVR_02-1000counts_9000MSres-export.csv DRIFT_TIME=16.1632 16.1932 16.1092 15.9492 16.0438 16.0358 16.0662 16.089 16.1132 16.0445 16.0807 16.1433 16.2691 16.242 16.1133 16.338 16.1466 16.095 16.1815 16.1403 16.1014 16.1701 16.1255 16.2243 16.0869 16.2942 16.2472 16.1842 16.0323 16.168 16.1535 16.0937 16.2419 16.2413 16.1967 16.1005 16.1544 16.2868 16.4392 16.2513 16.2324 16.2975 16.3256 16.5402 16.3151 16.2959 16.3783 16.5113 16.6143 16.4945 16.632 16.5216 16.5547 16.4598 16.5288 16.5806 16.5075 16.6218 16.5396 17.122 17.0356 17.0321 22.0609 17.0475 17.2476 16.9341 16.9774 16.8453 17.5025 17.0221 17.0435 17.6238 16.986 18.3697 18.33 27.8349 18.7376 22.1162 17.8384 18.1998 19.4794 19.1904 20.3408 21.6467 18.6437 21.5988 17.9006 16.4651 16.3555 16.6579 22.7275 29.9872 20.8422 32.9384 16.4029 17.3862 20.4078 20.3832 24.0612 22.1908 23.2447 22.3487 22.212 19.144 31.806602 34.5619 34.5357 36.9953 23.9382 19.7761 25.1181 24.7801 24.4813 26.0374 29.1961 24.4131 24.9999 25.0198 24.5072 28.8039 25.6153 25.8853 26.6624 25.1909 27.4961 27.0645 28.2317 35.3328 16.5952 16.6822 23.0389 24.0932 32.7571 27.867 17.0182 16.7084 29.5473 28.3375 17.3915 26.8338 36.2029 26.6835 28.094 28.4231 28.6149 36.3621 36.2465 30.212 32.0133 32.9032 29.5918 18.4895 18.7468 31.132301 31.853 28.5372 28.5744 36.2368 33.3478 32.2641 32.908 36.2404 31.668198 31.035698 31.1255 36.2052 38.142 35.9469 34.538 34.6956 39.712 41.1815 39.1006 46.1783 46.0947 37.0903 40.2492 23.7009 46.0845 44.1877 47.0401 46.7709 47.5076 41.2594 47.048 55.8572 43.4116 55.5037 41.5462 40.5205 45.572 46.6004 46.1969 50.9611 51.952 43.9618 43.8411 41.2631 47.1624 46.456 47.1939 45.2031 44.9718 49.0039 50.1528 46.8396 46.5348 52.0979 63.759796 57.0254 49.545 64.1912 49.5492 63.643295 71.6628 47.0728 53.378 31.415298 60.1201 50.2456 31.876 31.734299 60.205 57.2435 55.9375 78.3887 64.7737 68.9971 54.0968 62.7558 65.9942 74.8174 71.1602 73.762 73.9201 72.7359 77.5263 79.0101 83.9381 43.792 44.4744 45.2207 68.4557 45.679 84.3609 45.1567 68.5223 38.4257 85.017 37.7881 41.4948 68.077 38.1138 41.8099 43.449 68.681 43.1437 44.1203 68.1586 68.0502 67.6236 74.3528 82.9883 82.9646 89.836 89.3332 89.603 112.4375 116.7846 114.3805 113.9145 123.9245 124.6032 121.7052 125.8579 140.4303 146.543 147.3141 140.9816 154.0847 148.7729 176.1745 167.1882 167.912 
PEPMASS=740.4035
CHARGE=2+
100.0347 163
101.0457 769
102.0419 1512
103.0397 215
107.0354 551
111.0293 1590
113.0472 238
114.0761 1050
116.055 215
119.0337 493
119.0703 343
120.0647 3041
121.0697 296
123.0309 183
125.0416 157
126.0751 144
127.0219 352
129.0391 312
130.0329 472
133.0687 462
135.0372 315
136.0571 4377
137.0611 508
137.1149 212
138.0701 170
141.0474 161
143.0987 611
147.0601 898
148.0563 285
152.0828 185
155.0491 2806
156.0521 345
156.0841 296
158.0712 281
159.0565 305
161.0393 136
169.0634 406
170.0236 268
171.0889 1585
173.0567 5040
174.06 938
175.0948 1775
176.1006 191
177.0833 474
178.0983 213
186.0637 310
187.0708 1538
188.0714 249
190.0941 151
193.0714 356
195.0867 218
201.0201 288
203.0343 820
205.0612 190
213.0825 672
217.0774 1881
218.0818 337
219.0294 1626
220.036 252
221.0635 303
226.0643 319
227.1019 365
227.1695 360
228.0989 273
229.0069 370
231.0909 1111
232.0927 258
233.0416 297
237.0537 180
239.1196 145
243.0265 331
243.08 217
245.0423 199
245.1231 189
247.0735 768
255.195 155
257.1247 341
259.1377 122
261.0959 319
263.0475 251
265.0839 783
266.0814 162
272.1245 354
274.1485 1622
275.0638 374
275.1538 263
277.0597 488
278.0516 353
278.5523 157
279.0916 265
281.0761 171
281.2108 236
282.1048 172
283.2254 288
285.0563 319
286.1039 148
286.1286 186
293.073 356
295.0918 173
297.0767 164
299.135 304
300.1152 1154
301.1159 182
305.1034 177
307.224 106
309.2373 2862
310.2421 555
311.2475 131
314.1067 228
321.0788 191
329.1357 211
330.1432 136
332.0834 128
335.0785 319
340.1083 301
341.0734 595
345.1075 2338
346.1103 792
347.1086 169
349.0941 479
350.0889 430
351.0849 104
355.0833 208
357.0386 543
359.1209 1290
360.1292 459
361.1246 127
362.1187 116
364.0753 283
364.5749 130
365.1042 370
367.0899 237
370.1973 150
371.0457 186
371.0817 386
371.5847 187
373.1354 476
375.1484 139
378.0842 147
381.105 742
382.039 127
382.0972 170
383.0455 196
385.0918 1015
386.1109 161
387.2188 1472
388.2227 366
389.1254 324
390.1267 151
391.1142 136
395.1175 225
398.1833 194
398.6867 117
399.1108 721
400.1077 153
401.059 1694
402.0656 176
402.1504 289
403.1432 329
404.1471 234
407.1059 387
410.1395 119
411.1027 216
415.068 496
416.0733 106
417.165 120
418.1453 166
423.1234 119
425.1257 558
426.1251 128
427.17 162
435.1668 273
436.1662 142
436.252 236
437.2497 102
451.0659 220
463.1595 128
472.2054 157
474.1796 153
475.1576 154
488.1691 550
489.1726 162
492.1889 137
495.0842 196
496.1634 348
500.2881 1063
501.1384 120
501.291 316
513.124 824
514.1273 176
517.1582 242
518.1675 369
519.1688 118
520.1668 155
526.1601 244
527.1375 614
528.1393 150
529.0877 255
531.1714 450
532.1761 274
533.165 114
539.141 196
543.1012 118
553.151 786
554.1574 288
557.1429 455
558.139 108
559.1912 124
564.1449 145
566.1928 189
571.1606 481
571.3184 1108
572.1663 132
572.3157 408
572.3587 208
573.1136 453
576.1941 111
582.2365 139
586.214 151
587.1166 127
590.7477 202
591.2408 120
593.1577 123
597.1779 516
598.1882 164
602.3549 126
622.1955 128
627.3706 141
629.227 233
631.2364 163
639.2234 139
668.3214 168
679.2629 124
685.341 2032
686.3461 1075
687.3469 227
697.9645 351
698.9654 337
722.4306 301
733.2939 245
733.7932 173
738.8593 131
739.2105 6816
739.366 188
739.3666 229
739.8792 145
740.2158 3566
740.2879 574
740.4301 244
740.7893 408
740.8309 279
741.1988 1419
741.2897 187
741.3277 175
741.8195 205
742.1909 439
742.3262 204
742.8344 120
743.2047 6795
744.2122 2570
745.1788 447
745.3141 6083
796.3617 561
797.37 250
813.3839 2004
814.3884 997
815.3828 292
960.4277 925
960.4339 865
961.4247 559
962.4366 206
1017.4481 2606
1018.4414 1629
1019.4526 519
1019.4575 479
1180.4816 571
1180.4857 785
1181.4902 598
1181.493 461
1181.4999 434
1182.4868 279
1366.5377 283
1366.5449 293
1367.5223 266
END IONS
BEGIN IONS
TITLE=Spectrum 1BSA_LGEYGFQNALIVR_03-1000counts_9000MSres-export.csv DRIFT_TIME=16.0941 15.925999 16.1555 16.0826 15.844101 16.0353 15.964199 16.0325 16.1433 15.9125 16.0702 15.8396 16.2043 16.1323 16.1842 16.1 15.981499 16.1933 16.1592 16.2008 16.0551 16.2694 16.211 16.2027 16.4444 16.1888 16.3385 16.2409 16.1163 16.4156 16.199 16.1019 16.1779 16.0856 16.156 16.2842 16.2024 16.5027 16.5533 16.2659 16.2957 16.2753 16.2162 16.4227 16.4344 16.4086 16.366 16.6714 16.5494 16.2923 16.387 16.5088 16.3576 16.5789 16.6222 16.662 16.6763 16.7443 16.9567 17.2596 16.817 17.3209 22.1161 16.9379 17.3477 16.9634 16.6966 17.0688 17.4372 17.6356 17.1433 17.4788 18.2797 28.1412 18.7941 17.9125 22.4889 17.7952 18.2928 19.5954 19.3856 16.394 19.9039 21.4708 21.5785 18.583 21.6548 17.6502 16.6222 16.8957 22.7731 29.8775 20.3942 32.8582 16.642 20.8675 16.3107 19.919 23.2809 22.5175 22.0652 18.7417 34.7528 34.9528 36.3795 22.9672 19.4732 23.5846 24.6646 25.4101 26.3301 29.282 24.2215 25.0914 25.0453 25.1881 28.786 25.4345 26.9899 25.2878 27.2514 27.3703 35.3961 16.6828 16.6063 23.3553 24.3395 34.0039 27.4844 16.8568 17.1562 26.0216 29.3677 37.3077 17.1643 26.9558 36.0293 27.1163 27.7351 28.1983 27.6646 36.4686 36.7781 30.3138 30.8227 31.1683 29.094 18.8956 19.0414 31.3885 31.665901 28.8819 28.6253 35.2975 32.8306 32.3161 32.7102 43.0378 32.1118 31.2201 31.492302 37.0144 36.6746 34.8454 34.4302 39.4999 41.275 38.7793 46.3357 38.2842 51.1107 24.173 43.9055 45.2097 47.4184 46.6426 47.7146 41.1289 47.1634 55.5939 56.0559 41.5294 41.5743 53.5671 45.5792 45.8532 52.6235 44.2543 41.9134 47.086 47.4675 46.883 49.0261 50.5036 47.1853 64.8681 56.3559 49.5467 64.5227 50.2262 62.5367 73.3513 47.9161 32.0587 32.1511 59.9691 56.3456 56.1251 70.5498 54.2716 65.2285 73.977 73.3426 73.6214 77.5715 80.6368 79.0802 85.6596 44.7953 44.322 44.2873 45.9898 68.6454 46.1651 84.7903 68.5029 37.7073 42.2442 84.5456 38.3655 42.7396 67.9868 38.1025 71.6663 42.3035 44.7259 68.9825 43.7563 44.2269 68.1908 50.1269 68.4754 67.9902 74.6976 84.4179 87.3356 89.6096 90.3942 88.0271 115.3298 114.6801 122.7498 121.133 126.8655 125.0049 124.407 147.7284 146.3246 152.4213 168.1384 
PEPMASS=740.4035
CHARGE=2+
100.0641 153
101.0471 685
102.0424 1644
103.0443 199
105.034 188
107.0347 469
109.0139 176
111.0304 1536
112.06 165
113.0467 196
114.0775 917
116.0564 229
119.034 398
119.069 313
120.0654 2778
121.0692 262
123.0319 179
127.023 366
129.042 321
130.0363 395
133.0719 384
135.0422 242
136.0579 4105
137.063 459
137.1169 186
138.0716 187
143.099 492
147.0625 845
148.0613 256
152.0887 164
155.0515 2432
156.0566 294
156.0844 279
158.0759 327
159.0604 212
169.0678 407
170.0269 241
171.0922 1491
172.0926 170
173.0587 4796
174.0629 762
175.0958 1694
176.0972 202
177.0871 555
186.0653 353
187.0733 1377
188.0797 207
193.073 418
195.0907 176
199.0734 245
201.0235 282
203.038 807
204.04 129
205.0711 168
213.0856 694
217.0804 1790
218.0842 263
219.0331 1578
220.0354 276
221.0623 260
226.0823 336
227.1051 400
227.1737 378
228.0984 297
229.0111 343
231.0939 1129
232.0954 265
233.0423 303
237.0592 168
239.114 121
243.028 402
243.0876 214
247.0767 717
255.203 149
257.1269 273
259.0614 165
259.1358 167
261.0984 282
263.0595 232
265.0851 666
266.0871 145
272.0892 150
272.1285 348
273.1297 109
274.1534 1529
275.0675 306
275.1538 194
277.0581 413
278.0549 287
279.0968 278
281.0788 144
281.2133 215
282.1189 132
283.2342 236
285.0609 289
286.1337 190
292.0694 129
293.0759 279
299.1327 161
300.119 1011
301.1304 187
305.1092 209
309.2415 2808
310.245 696
311.2513 146
314.1096 207
321.0793 158
327.1017 129
329.1388 240
330.1442 133
335.0822 351
340.1036 241
341.0767 435
345.1124 1916
346.1154 757
347.1225 152
349.098 406
350.0933 437
355.1025 150
357.0431 517
359.1268 1290
360.1311 528
362.1162 123
364.0806 315
364.5794 152
365.1066 291
367.0915 262
370.1925 141
371.0544 212
371.0818 339
371.5854 140
372.1233 108
373.1386 446
375.1047 113
378.0921 195
381.1037 711
382.0394 106
382.1125 146
383.0487 170
385.0958 966
386.0986 220
387.2242 1309
388.2275 366
389.131 373
390.1401 152
391.1039 173
395.1179 172
398.1965 214
398.6908 159
399.1119 628
400.1217 132
401.0637 1477
402.0682 143
402.1537 195
403.1459 304
404.1474 213
407.1072 272
410.2423 119
411.1124 159
415.0737 515
416.0809 128
417.1674 157
418.1421 141
425.1261 542
426.1328 127
427.1781 140
435.1709 277
436.1664 115
436.2538 339
451.0636 230
466.2494 123
472.2141 122
475.1633 124
478.1619 120
488.1737 432
489.1727 120
492.1823 196
495.0854 155
496.1642 288
500.2958 934
501.293 297
513.1297 694
514.1395 205
514.307 180
517.1614 263
518.1695 328
526.1617 157
527.1471 504
529.0972 205
531.1789 366
532.1871 282
539.1495 116
553.1615 631
554.1608 218
557.1486 403
564.1635 136
566.1982 147
571.1712 494
571.3216 1063
572.1729 126
572.3313 318
572.359 225
573.1144 402
590.7553 174
591.2571 131
593.1688 130
597.183 441
598.171 142
609.3729 135
629.235 198
639.2389 122
685.35 2169
686.3546 813
687.3501 232
697.9875 398
698.9893 299
699.9663 119
722.4279 244
733.2974 240
733.7998 161
734.2918 109
738.8733 157
739.2198 6223
739.3556 152
739.395 187
740.2265 3174
740.2933 544
740.3378 457
740.434 202
740.797 450
740.8518 335
741.2129 1117
741.2944 221
741.2992 339
741.3397 241
741.8204 176
742.2025 365
742.3217 187
742.8294 114
743.2137 6059
743.3148 148
744.219 2259
745.1913 466
745.3239 6011
796.3652 499
797.3758 198
813.3935 2094
814.3989 988
815.4093 295
960.4431 849
961.4391 592
1017.4556 2373
1018.4569 1387
1018.4579 1278
1019.4761 565
1020.4536 159
1180.5042 628
1181.4957 523
1181.5203 408
1367.544 265
END IONS
BEGIN IONS
TITLE=Spectrum 1BSA_SLHTLFGDELCK_01-1000counts_9000MSres-export.csv DRIFT_TIME=15.9748 16.152 15.9021 16.1097 16.065 16.0596 16.0754 16.0227 16.1689 16.1188 16.0905 16.1866 16.3895 16.2538 16.2482 16.1332 16.3026 16.1864 16.295 16.333 16.2303 16.3192 16.1772 16.2691 16.4547 16.3777 16.646 16.3501 16.3893 16.2214 16.3966 16.3494 16.4495 16.746 16.5917 16.604 16.768 16.5647 16.9422 16.9733 16.829 17.5307 16.9193 16.9854 16.8433 16.9711 17.5291 17.1974 28.2706 22.5078 16.6263 17.8928 16.5682 16.8427 16.6928 23.8177 30.7251 33.6456 16.56 20.716 20.596 22.0965 34.7277 27.7826 19.7222 26.1992 28.3699 28.75 30.358 29.8052 25.0996 25.2221 25.2842 28.7808 26.1464 24.1 27.7509 27.1919 36.5649 16.5679 35.8792 24.8892 25.2818 24.1332 24.2618 16.7662 27.0353 29.9803 16.9446 32.4666 30.9368 30.5542 32.8925 29.1901 30.093 17.7922 33.0421 32.5413 31.7943 38.7289 38.4606 39.3413 39.8708 34.8842 21.046 40.3863 20.4006 42.8704 22.7283 36.8467 43.2454 43.0252 26.0324 26.5943 46.1223 41.1161 41.3248 51.4473 40.8208 46.1426 46.1059 44.8516 42.1858 48.1772 21.8052 45.3172 53.9935 56.7207 54.0955 56.0473 56.22 56.7617 52.8696 52.5443 67.0629 33.5821 34.0007 34.8857 35.0878 35.073 40.886 78.8066 45.9945 81.2897 40.4218 80.3306 44.2128 41.1698 64.0547 81.3895 63.8984 64.2196 64.9061 72.7874 130.7866 
PEPMASS=710.353
CHARGE=2+
100.0437 290
101.054 514
103.0695 204
110.0653 909
111.0387 1095
112.0205 579
114.0849 1172
119.0782 409
120.0741 326
122.0752 263
127.0706 222
133.0785 226
136.0678 159
137.1267 157
138.0852 145
147.0714 1351
152.0946 194
155.0613 2755
156.0642 395
169.0768 329
173.0705 4295
173.122 177
174.0739 677
175.0778 333
186.0754 343
187.0865 656
190.1108 160
193.0834 181
195.1021 268
199.0856 186
200.1176 377
201.0373 283
203.0534 521
213.1012 595
217.0945 1748
218.0982 387
219.0475 2148
220.0503 328
226.094 3373
227.0976 492
228.1093 2224
229.0219 181
229.107 210
231.1097 1258
232.1124 162
233.0615 319
239.0975 239
243.0423 479
255.2204 233
259.1565 177
272.1058 495
277.0793 1392
278.0737 210
279.1143 506
279.617 153
281.101 123
281.2332 133
283.2483 154
285.08 205
286.1491 2107
287.1476 257
307.124 703
309.263 380
320.1613 200
321.101 134
335.1025 739
338.1606 543
339.1682 147
340.1273 448
341.1388 133
345.1322 2266
346.1365 701
347.1397 390
349.1191 548
357.067 235
358.1323 164
359.1471 821
360.1535 278
362.2104 151
364.1031 243
364.2288 257
365.1477 320
365.6443 133
367.117 858
368.1281 105
371.1055 265
372.1469 319
373.158 165
378.1149 138
385.1595 166
389.16 297
390.1646 213
391.1232 137
401.0888 832
402.0962 155
402.5589 171
403.1743 847
404.1749 227
415.1108 280
419.1133 225
420.2099 146
421.1306 193
421.2001 118
429.1183 145
438.2406 126
439.2234 230
439.5703 150
446.1499 183
448.2476 127
451.096 144
451.1534 524
452.1578 176
485.2715 179
485.5937 128
486.1782 111
495.1225 1241
496.1241 175
512.1871 181
513.1689 181
517.1994 195
519.2072 125
527.1759 113
529.1395 117
531.2242 124
535.8628 114
539.1729 136
556.192 327
557.2039 163
558.1924 300
574.1933 302
576.2038 535
577.2168 120
596.2154 148
599.2599 120
599.3997 140
601.246 307
601.7504 266
610.2485 345
610.7568 277
611.2497 132
676.3677 114
697.015 229
704.7313 122
709.4158 1302
710.3719 135
710.4232 737
710.7268 132
710.8234 166
711.2407 12987
711.4355 230
712.2437 5376
713.255 1589
714.2606 152
721.2839 150
1082.466 181
END IONS
BEGIN IONS
TITLE=Spectrum 1BSA_SLHTLFGDELCK_02-1000counts_9000MSres-export.csv DRIFT_TIME=16.062 15.9384 16.1131 16.0442 16.0199 16.2337 15.875599 16.1272 16.0944 16.1372 16.2534 16.2831 16.2011 16.1628 16.2306 16.17 16.2463 16.2579 16.144 16.2876 16.35 16.6739 16.7456 16.4165 16.4089 16.6624 16.6447 16.5687 16.5156 16.7188 16.8329 16.9825 16.956 16.9285 17.4307 16.9443 16.926 17.3266 17.2693 27.7928 22.2536 16.7223 16.741 17.7687 16.7124 16.8932 23.2088 29.9268 16.3834 20.5868 21.1035 22.0606 34.8799 27.1532 19.819 26.2574 28.3174 30.6874 25.2972 25.0658 25.6428 29.1011 29.9421 25.5239 23.7657 27.9549 27.6442 37.1632 16.6127 36.2232 25.7419 24.3122 17.0497 27.0391 29.5314 29.9211 17.1484 31.668602 30.497 30.1152 33.2612 28.9381 29.7299 17.7013 33.0263 32.9312 32.0304 37.3425 37.6975 38.7127 35.2836 21.216 42.615 20.3294 20.2868 22.1145 43.5811 22.7548 22.2952 42.7951 36.8321 26.512 41.2215 51.2952 42.544 45.7432 54.5627 56.5258 53.9175 53.5787 54.7143 57.5036 54.1916 56.8125 63.6335 34.0953 34.2852 34.5013 35.1091 40.6573 81.4961 43.2125 81.1318 64.1681 79.2931 82.9207 64.0759 64.4885 
PEPMASS=710.353
CHARGE=2+
100.0442 219
101.0549 348
103.07 242
110.0648 853
111.038 1003
112.0199 569
113.0546 182
114.0855 1033
119.0798 373
120.0734 293
122.0739 229
133.0795 275
147.0745 1074
152.1027 174
155.0623 2586
156.067 472
173.0714 3993
174.0753 660
175.0781 235
186.0763 271
187.0874 564
195.1042 221
199.0936 153
200.1204 357
201.0362 239
203.0514 412
213.1045 515
217.0951 1505
218.096 370
219.0472 1657
220.0508 273
226.0958 3097
227.1016 502
228.1103 1804
229.0264 176
231.1095 913
233.059 271
239.1033 198
243.0456 408
255.219 203
259.1595 154
272.1076 456
272.6118 154
277.0818 1089
278.0744 227
279.1165 430
281.0961 118
281.2355 108
285.0782 192
286.1508 1841
287.1541 187
307.1322 547
309.2676 295
320.1568 196
321.0991 123
335.1086 581
338.1656 374
340.1309 397
345.1363 1619
346.138 479
347.1474 287
349.1222 531
350.1258 111
357.0674 162
358.1442 179
359.1516 658
360.1544 170
362.2163 147
364.0998 197
364.2274 209
365.1531 205
367.1173 633
371.1123 233
372.1565 258
373.1666 133
374.1636 130
378.124 122
385.1716 102
389.1594 228
390.1621 113
391.1282 116
401.0926 544
402.0987 104
402.5542 177
403.1757 805
404.184 155
415.1167 175
419.1236 240
420.204 127
421.134 194
429.1277 134
438.2553 116
439.2175 164
439.5726 133
439.9132 124
442.2454 108
446.1496 128
448.2434 161
448.579 110
451.1566 447
458.1909 136
485.2708 133
495.1209 935
512.1897 136
513.1728 132
517.1955 122
549.2412 131
556.1928 315
557.2021 146
558.2089 265
574.1909 166
574.2208 212
575.2126 105
576.2075 420
599.3862 134
601.2563 324
601.7537 265
610.2663 222
610.7567 213
701.301 126
709.4236 1201
710.3938 142
710.4256 472
711.2412 10755
711.4017 153
711.4402 167
712.2479 4462
713.2603 1495
END IONS
BEGIN IONS
TITLE=Spectrum 1BSA_YNGVFQECCQAEDK_01-1000counts_9000MSres-export.csv DRIFT_TIME=16.0725 16.0741 15.9832 16.074 16.1852 16.102 16.0509 16.1941 16.2037 16.1117 16.1392 16.2961 16.1229 16.2382 16.1633 16.3239 16.2903 16.1693 16.2269 16.3451 16.2952 16.3919 16.4065 16.8063 16.7158 16.7563 16.6191 16.7394 16.6442 17.032 17.3936 17.0641 19.0347 18.1551 21.3709 17.0886 29.4116 19.6671 18.7958 33.055 18.9495 32.0908 34.9724 35.0397 35.7672 23.6142 24.2681 23.6872 28.8216 25.8934 25.1789 25.1358 29.0703 27.6264 27.5289 25.0245 28.4565 32.3495 32.5728 30.7112 30.1802 31.785103 29.0972 32.708 38.9463 42.1657 43.6125 34.7476 39.7052 39.6093 36.1127 39.1044 41.8788 40.7106 40.9769 39.9285 48.1242 43.9002 44.0489 46.8245 45.7181 46.0178 47.5341 47.5263 45.1413 69.4286 68.9616 54.2887 54.634 52.0196 54.5753 59.3348 59.9358 61.4531 36.4903 35.841 81.0154 65.3126 67.5323 67.6281 69.8922 75.709 75.7724 82.966 84.6808 84.1647 46.3564 63.7611 62.4843 63.277496 63.3553 59.7428 58.8158 62.9666 63.884705 63.072495 63.3463 49.1141 48.2174 48.3496 63.915 64.9997 65.3276 65.0238 65.8197 65.6122 65.6746 64.6217 65.8768 64.56 63.3472 64.7479 54.176 51.2041 62.3751 65.2951 83.057 92.2262 54.157 65.0523 118.9325 64.2473 64.7094 54.5053 64.6287 83.9706 64.8497 49.5367 93.1959 64.5002 122.732 64.8019 49.4145 64.3048 55.4407 49.1914 93.1444 62.4485 49.9387 63.924896 58.4126 64.2636 93.1507 64.1648 64.8299 49.0607 60.9281 
PEPMASS=874.3585
CHARGE=2+
101.0599 1849
111.0433 3669
112.0479 184
113.0622 305
114.0919 353
120.0775 214
127.0752 315
129.0554 576
133.0875 549
136.0745 519
137.0571 234
141.0918 157
147.0811 357
155.0682 7696
156.075 525
169.0854 807
173.0777 16541
173.2077 179
174.0859 1473
177.1132 315
187.095 3558
188.1017 313
199.0951 379
203.0588 156
213.1108 3670
214.1145 296
217.1067 2456
218.1073 192
219.0589 413
231.1207 520
233.092 214
243.1201 127
262.1373 224
265.1087 203
278.1094 228
279.1281 174
281.2444 124
283.1147 135
283.1742 185
283.2628 276
287.1544 135
307.2633 172
309.2757 5720
310.2828 1486
311.2887 250
327.144 1434
328.149 213
331.1783 144
335.1315 384
341.163 143
345.1507 17285
346.1573 2530
349.1397 144
359.1649 7905
360.1729 1137
365.1652 276
375.199 133
385.1847 2122
386.1859 395
389.18 737
390.1663 133
391.1787 124
401.1119 111
403.1957 379
406.1994 178
410.2858 103
411.2873 139
419.2302 178
434.2036 126
439.2452 212
451.2014 193
455.1927 499
462.2124 182
463.249 151
473.2022 531
474.1951 131
488.2428 234
499.2144 609
500.2178 129
513.2301 143
517.225 7455
518.232 1564
531.2391 5263
532.2471 1058
537.2351 116
546.4194 139
547.4203 305
557.2579 875
558.2684 204
561.2524 237
575.2583 147
627.2739 576
628.2696 169
645.2721 435
657.7576 121
658.2575 122
665.5253 131
671.2854 225
689.2975 3512
690.3038 973
703.3133 385
729.3371 277
747.3396 190
799.3338 333
817.3516 717
818.3484 235
845.1741 124
853.1282 103
853.5103 121
853.719 145
853.9145 126
855.5197 159
855.7582 155
856.9223 149
857.1196 143
857.3262 134
857.5299 140
865.8375 168
866.3309 189
866.8235 124
869.0274 126
870.1353 170
870.3325 362
870.5259 527
870.7248 392
870.9219 340
871.1443 243
871.3482 227
871.5256 183
871.7196 138
872.3007 151
872.5241 223
873.016 208
873.1956 181
873.3114 150
873.346 203
873.3493 138
873.48 202
873.5154 559
873.5342 414
873.6545 159
873.722 355
873.9243 506
874.0178 161
874.1297 681
874.3262 134
874.3389 755
874.3495 330
874.4909 117
874.5307 697
874.6478 147
874.719 369
874.8445 490
874.9036 144
875.0075 122
875.341 451
875.3824 8531
875.5164 413
875.8473 300
876.0196 275
876.2798 120
876.3325 252
876.3887 3739
876.5278 629
876.7221 301
876.8392 143
877.0347 344
END IONS
BEGIN IONS
TITLE=Spectrum 1BSA_YNGVFQECCQAEDK_02-1000counts_9000MSres-export.csv DRIFT_TIME=16.0431 16.0698 16.0744 15.970699 16.1121 16.1656 16.1853 16.1283 16.1023 16.2425 16.1668 16.3467 16.2165 16.2187 16.1998 16.2848 16.2947 16.1348 16.2666 16.3753 16.3272 16.4824 16.3479 16.6648 16.7092 16.852 16.6167 16.6025 16.8122 16.9805 17.0658 17.163 17.8814 18.4848 18.5814 16.5814 20.0531 19.6746 21.078 16.8497 32.963 19.281 32.0026 34.8768 34.8396 36.3111 23.794 23.6222 27.8179 25.7433 25.2405 25.3057 29.1791 27.4917 27.7981 24.8792 29.1641 30.1857 32.4505 32.4642 30.618 30.265 29.2876 33.0825 42.5813 35.8401 34.2358 34.8623 41.269 39.1508 38.9416 42.4506 40.9853 48.5094 44.5594 46.8875 45.9494 45.6344 47.4017 47.4762 66.6982 54.3792 56.2579 51.6955 34.1912 33.855 37.3521 38.0927 60.0572 58.9127 61.1749 65.3125 67.2643 68.6824 69.0167 76.1067 82.6823 83.4354 64.8547 65.3617 65.3518 53.3468 90.0945 53.6911 64.4108 65.9379 63.883804 53.1497 66.6516 64.2555 92.9028 63.237 63.8413 93.4813 65.084 59.3681 92.6884 
PEPMASS=874.3585
CHARGE=2+
101.0601 2124
111.0423 5053
112.0472 220
113.0604 400
114.0912 435
120.0817 426
127.0751 668
129.0544 652
133.0869 244
136.0744 857
137.0614 335
141.0932 169
147.0809 414
155.0685 11978
156.075 787
169.0856 1153
173.0792 18159
173.2085 326
174.0857 1902
187.0955 3454
188.0984 312
195.11 256
199.0965 601
203.0606 193
213.1111 4836
214.1174 542
217.1061 4048
218.113 281
219.0572 352
221.1171 222
231.1216 769
233.092 173
247.0937 253
262.1375 157
265.1022 415
272.1222 163
274.1647 264
275.1697 105
278.1118 213
279.1262 162
283.2625 246
287.151 135
307.2646 113
309.2773 4615
310.283 1236
311.2819 177
327.1421 2003
328.152 248
335.1328 360
341.156 242
345.1516 16674
346.1573 2594
349.1383 145
359.1659 5441
360.1714 870
365.1633 210
371.1728 167
373.1809 121
385.1837 2169
386.1862 366
389.1802 1037
390.1806 151
401.1174 184
403.1938 423
410.2942 192
411.2005 157
419.2293 148
437.1829 161
439.2452 173
455.1955 505
456.1959 122
462.2192 162
473.2001 352
488.2313 126
499.2167 522
513.2353 132
517.2253 4872
518.2325 947
531.2412 2591
532.2472 685
547.4244 139
557.26 528
558.2565 119
561.2566 179
586.3573 135
586.6091 103
614.1336 143
614.3703 115
627.2621 361
628.2725 126
645.2734 243
671.2917 146
689.2995 1734
690.3027 490
703.3251 269
747.336 172
799.3472 162
817.356 156
870.5355 205
870.7324 176
870.9294 125
873.0168 174
873.4554 287
873.5151 326
873.5219 176
873.7252 103
873.9235 131
874.0196 181
874.344 135
874.5315 152
875.3848 1425
875.5078 232
876.0081 258
876.3806 591
876.515 215
876.5258 185
910.3315 147
END IONS
