BEGIN IONS
TITLE=Spectrum 1 DRIFT_TIME=16.5173 16.4813 16.3994 16.1715 16.383 16.9007 16.0681 16.7062 19.2262 16.4919 16.1997 16.5152 17.3818 16.4906 16.8822 16.4499 17.3696 16.7661 17.2631 16.8826 22.1403 18.2772 18.1899 16.1511 20.4043 17.436 18.1876 17.5706 21.7975 18.0749 20.9337 19.8324 18.5236 19.3645 20.6753 20.1721 19.1207 19.3029 21.1165 23.0964 22.2786 21.1575 22.0649 24.1984 26.3842 24.2034 23.3266 24.2779 25.1609 24.8828 25.1911 24.3574 25.7327 26.2609 26.1007 29.1982 26.0181 28.4822 28.6825 28.9235 39.1755 39.72 28.3764 26.1972 32.2181 31.604301 29.1707 29.8494 30.84 30.8054 30.8118 32.1494 28.2522 28.4319 30.6618 30.8557 31.8624 33.6811 33.4931 33.6681 32.6931 41.8405 34.5862 31.3153 35.1259 32.0491 37.0332 35.3134 35.6341 27.3428 33.3508 21.8946 45.3826 45.5245 37.5119 39.5084 29.8627 32.8763 32.6753 22.2247 33.2515 41.3525 38.2192 38.0579 34.5692 37.7854 34.3692 38.853 22.0981 39.4769 55.4577 26.1893 43.818 49.2164 38.5242 36.7617 23.7898 33.9085 35.6987 39.3148 44.2061 26.2506 53.6274 39.8137 42.2897 28.6999 26.4684 39.0021 50.4826 27.2524 29.0538 45.0495 25.5816 35.9896 44.3466 28.3739 44.1514 43.0924 25.6214 43.263 53.9543 48.7558 30.4103 28.7066 28.6727 43.6663 50.6672 30.3761 50.7154 30.2202 47.2805 51.3859 45.957 44.708 26.5826 42.8383 29.3362 29.8459 29.0946 29.1361 28.9201 58.9586 32.63 32.4951 49.4132 55.2193 48.9678 47.6665 72.1248 57.289 66.9646 62.0645 48.0847 61.9594 42.6975 60.3483 62.0168 27.597 33.4538 48.1851 31.391197 21.3987 47.4702 29.385 33.7839 33.8134 34.0295 53.831 47.0433 32.5026 32.9435 47.7427 33.8697 75.6739 35.003 34.6562 34.2554 33.6832 36.3474 36.1184 35.6709 35.3204 35.1687 35.0238 37.5654 35.1789 35.1382 35.723 27.7611 33.6326 33.7311 36.0394 31.226501 37.1416 36.9453 36.8326 56.7186 36.54 37.3333 36.6004 36.0394 37.2642 35.2551 38.4599 36.3232 36.4934 36.5685 36.593 38.8726 38.2779 38.6199 38.2485 36.1235 26.6156 26.2211 38.2932 38.1439 38.1306 37.8068 36.4054 78.2328 36.7168 36.6996 36.6234 36.5745 48.3819 29.316 26.8131 25.9716 25.9804 36.7049 36.4591 34.7247 34.4305 36.5122 37.3137 39.5096 64.658 38.9764 64.0108 38.7546 41.8222 37.026 39.4885 37.7388 37.1637 40.3035 39.6864 40.5178 40.4002 40.6315 40.3929 39.7688 39.4055 39.5398 39.3215 39.3943 32.5369 31.767601 40.3483 66.1626 40.2056 39.929 65.3517 40.311 41.7248 41.375 41.8158 43.5233 43.5084 40.9294 30.1415 41.4011 29.2666 41.2871 41.3516 41.7636 42.8514 42.8069 42.7642 42.7552 30.5081 31.1708 42.6866 44.8635 42.3704 42.6304 41.7883 48.5607 49.3352 49.3543 31.946098 32.4414 32.9011 31.990402 40.9915 45.9945 45.2711 46.3124 34.0546 33.8061 70.9007 39.8601 39.8157 40.7018 41.7913 42.332 42.3236 38.3152 36.6845 37.1606 37.2157 37.0585 41.035 43.5304 44.0738 44.0697 34.3745 34.169 33.9658 35.8847 38.3558 40.9997 37.8733 83.3809 46.682 35.2073 46.1698 35.9699 45.9662 35.8114 45.2276 37.3112 37.994 37.4605 35.8781 36.4969 36.3225 36.44 44.2715 44.3399 43.9379 46.9525 47.1384 47.0732 47.3486 46.6716 48.1931 36.9023 37.8643 37.8256 37.7221 45.883 44.7904 76.8944 47.4509 49.8749 80.5956 49.8999 49.9243 37.4571 81.2534 37.6042 49.5768 37.6612 50.3518 37.3877 37.1761 81.788 84.3265 58.8951 59.2556 60.7383 60.2724 65.1923 60.8595 102.2268 103.0768 97.7894 69.5192 70.5127 106.7527 124.1169 125.4693 129.5659 135.2102 
PEPMASS=589.283
CHARGE=2+
61.0503 241
70.0761 463
72.0924 205
80.0246 373
84.0923 999
86.1096 630
87.0585 327
89.0726 1321
99.0016 176
104.0863 294
110.0434 1671
110.0871 475
120.0984 1330
121.0822 715
122.0996 2757
123.1026 183
129.1217 441
130.0837 229
130.106 215
133.1058 1582
134.9842 303
136.0955 4730
137.1 475
140.0656 146
145.0147 803
147.0995 277
147.1356 383
149.1169 149
152.9963 211
156.1015 141
159.043 1333
163.0275 195
165.1145 606
166.081 277
175.1102 365
175.146 885
177.1402 394
178.0801 332
179.0458 208
187.171 124
190.1133 194
191.131 144
193.1502 119
195.0239 2660
196.0334 230
197.0213 682
205.0534 753
206.0666 220
207.156 394
209.1494 194
211.1518 203
213.0357 185
214.9492 689
215.1705 160
217.1303 212
231.0257 189
232.9644 626
235.1414 7083
236.1459 1112
237.1447 125
247.2426 835
248.2495 134
250.022 331
250.9755 136
253.1684 352
254.0025 166
255.0654 219
255.1454 321
255.9962 115
256.0721 546
258.0731 210
258.1814 138
259.0121 131
261.0667 121
263.1429 677
264.1445 157
264.9595 530
265.1569 665
266.2032 307
272.177 115
273.0528 873
273.2625 115
274.0608 249
274.989 729
282.1808 148
282.9692 234
283.1801 282
284.2126 1186
285.2137 179
286.9764 337
290.0274 205
290.7027 189
291.2747 1472
292.2769 268
293.1558 845
304.9407 122
305.9987 162
307.0547 1168
308.0538 152
308.6896 185
309.0484 150
312.1935 294
316.9831 229
317.1308 140
318.969 111
319.1224 169
321.0969 191
325.0058 135
325.6655 144
335.0003 132
335.3028 135
340.1922 138
341.0838 108
342.2192 120
342.9898 255
344.9295 147
346.6747 122
348.0248 148
348.8742 152
349.0135 113
349.9487 238
352.1913 231
353.1367 152
355.1199 232
358.0215 123
359.2001 205
359.6956 194
361.0001 123
363.2651 348
363.6929 119
364.205 132
364.2172 190
365.1769 142
366.8913 284
366.9619 144
367.743 136
367.9632 474
368.9574 269
369.1843 130
369.9656 167
371.1524 197
372.2343 119
372.7166 121
373.2039 137
373.6974 248
376.0309 118
381.2786 3855
382.2088 935
382.2823 863
382.7092 405
382.9701 135
383.2923 110
384.9717 134
385.9779 146
386.6921 118
386.9666 415
397.7016 159
398.1936 110
403.6916 705
404.1935 427
404.6938 142
406.2645 116
406.7254 345
407.2196 206
408.9883 161
409.2245 238
409.9916 111
410.9847 529
411.2218 265
411.2256 183
411.2267 299
411.3538 358
411.9964 126
412.3298 391
412.9199 113
413.1761 213
413.3402 107
413.6333 153
419.7268 173
423.1417 539
423.7271 153
423.8472 119
424.1414 109
424.1537 193
424.2413 177
424.7374 121
425.2343 108
426.2255 294
426.995 258
427.7214 329
428.7304 114
428.9979 453
429.2287 198
429.2368 321
430.7578 140
432.7235 795
433.2264 440
433.7186 152
436.7485 140
437.2591 378
437.7503 1036
438.249 533
438.7459 169
439.283 169
440.281 119
441.239 457
441.7393 233
442.2427 135
442.9391 172
443.2243 387
443.7314 224
445.2586 133
445.6742 121
446.2636 1782
446.7668 1056
447.2621 318
447.3267 309
447.7629 124
450.75 118
451.2575 198
451.7474 140
452.2617 145
453.2445 123
454.2652 446
454.742 906
455.2383 1200
455.7323 689
456.2312 282
458.2934 413
458.7921 225
460.2604 446
460.7611 170
461.2392 124
463.2475 140
463.5813 143
463.7509 636
464.244 1262
464.7479 722
465.2549 232
466.2487 145
471.2589 239
472.2481 119
473.2394 891
473.7408 575
474.2431 169
474.9079 118
475.2826 135
475.9047 115
476.594 294
476.9277 236
479.2422 162
481.7574 124
485.226 580
485.7234 254
487.7513 309
488.2542 156
488.7632 187
492.3277 424
493.2807 195
493.3298 192
493.7798 179
494.8237 112
496.7546 126
497.2578 118
497.7554 377
498.248 283
501.7922 254
502.2822 307
502.7844 187
503.3417 186
503.8472 115
505.2768 1027
505.7706 2044
506.2756 1477
506.7775 572
507.2734 193
507.7644 121
508.9252 152
509.2593 141
510.2652 156
510.3421 377
510.7847 462
511.2615 379
511.3374 137
511.7605 235
513.799 762
514.3013 471
514.8052 197
516.3225 111
516.8258 193
519.2747 487
519.5809 233
519.7719 1001
519.9201 205
520.272 536
520.7791 209
527.7919 132
528.2802 6252
528.7844 3958
529.2846 1571
529.7821 523
529.9432 133
530.2812 102
530.2816 273
531.8419 111
536.2661 125
539.7858 164
540.2964 123
542.8438 122
546.3358 402
546.8373 120
548.2958 167
548.6372 146
548.9739 142
549.3069 146
550.7925 128
552.3248 169
552.8216 166
553.3328 119
554.6563 195
554.988 255
555.2956 127
556.3348 177
556.6781 229
557.0116 165
559.29 280
559.7994 325
560.2887 142
562.0139 174
562.3454 179
563.0286 310
563.3646 388
563.7048 208
565.2896 156
565.8009 288
566.3031 230
566.7945 111
568.9837 351
569.3215 357
569.6559 212
570.6796 128
571.0109 154
571.3414 141
573.3549 119
573.4825 179
574.3236 237
574.6632 554
574.8135 523
574.9983 515
575.3082 414
575.3307 328
575.8105 154
576.3519 272
576.6885 308
577.0221 129
578.6967 549
579.0294 535
579.3636 281
579.7026 124
580.3221 248
580.8218 201
581.3166 122
583.3325 1263
583.8272 2460
584.3284 1380
584.8298 560
585.3348 196
585.847 150
587.364 158
587.6979 310
588.0385 240
588.3701 131
589.3332 211
590.3336 107
591.3736 1065
591.8548 223
592.3372 5386
592.3966 514
592.8403 3652
593.3424 1366
593.3727 3915
593.4088 152
593.7051 3426
593.8493 533
594.0412 2025
594.3389 219
594.3771 759
594.7115 228
623.4407 534
624.4507 214
649.9208 139
698.9135 120
728.9448 126
729.4455 150
731.4615 135
748.4233 137
752.5079 809
753.5059 346
754.4783 139
802.4739 112
802.993 219
812.4437 173
915.5892 675
916.5921 370
916.598 369
1055.5992 152
END IONS
BEGIN IONS
TITLE=Spectrum 2 DRIFT_TIME= 16.6173 16.6485 16.1042 16.4023 16.8392 16.2601 16.7323 16.6428 16.4357 16.4198 17.358 16.4866 16.9008 16.9016 17.5465 17.0869 16.893 18.1769 17.9456 20.1976 17.5164 20.3389 17.5927 18.3794 20.0447 21.1058 18.7843 21.0708 19.889 22.9253 20.6753 18.7979 20.3314 21.5406 20.2369 20.3535 20.0809 18.9046 19.3504 23.8079 22.3703 22.0382 22.4069 26.5515 24.0454 24.3413 21.9358 29.5791 25.7118 25.8065 28.0782 26.9728 29.6042 25.6232 25.8725 29.0744 27.945 29.2791 29.1385 31.1251 34.3305 29.3729 39.1074 29.0551 28.2444 31.4234 31.6917 31.375801 30.2573 21.5148 34.6932 31.904999 31.2164 30.2607 36.6658 35.0039 32.9814 34.6034 37.4537 35.5941 35.6271 33.9628 33.4214 34.1116 36.5646 36.5958 36.0707 35.3992 26.4953 29.4273 34.0079 31.1572 45.1571 33.9169 25.5576 47.0837 31.889801 38.9966 39.4285 34.1077 29.5427 33.2686 33.1905 33.1878 39.1566 39.6883 55.246 39.4199 34.9202 44.0111 31.4431 43.3152 40.9183 43.9802 38.8411 38.3966 38.283 43.8528 51.6959 46.4473 37.1702 38.3195 41.8168 33.902 39.6225 48.6108 43.8396 42.1672 39.3823 39.8216 40.1584 44.0795 51.3723 42.6132 51.3511 50.8017 50.2549 43.0212 51.8075 35.22 35.4106 44.9692 41.7904 46.5896 44.1946 55.6932 52.7597 50.354 53.4453 57.9861 46.0833 55.4789 45.8181 52.9247 40.8316 46.8371 48.9782 46.2423 47.0799 30.6048 62.2503 30.4716 29.8894 51.298 55.0139 48.0749 53.2407 37.1038 56.5369 57.1594 51.978 57.2162 47.3252 50.2435 57.1923 51.6475 58.2179 51.2196 42.1244 46.9095 42.4665 49.9807 51.6024 51.9157 45.6216 66.8059 39.8748 52.7593 38.8731 53.0241 62.6866 52.4879 54.6045 38.8436 39.8631 34.1003 66.7546 71.9508 55.0286 65.4658 65.5185 57.822 69.1914 68.8364 41.3162 41.3448 57.1345 43.6587 43.0019 72.7574 77.2971 78.1948 40.7696 43.9305 77.9519 41.2829 48.9717 49.1647 72.3615 46.8794 46.9235 71.6215 46.7339 45.7709 76.0211 77.0911 72.4259 63.7464 82.8753 77.4479 78.333 50.2666 51.0647 86.6938 87.4343 88.1024 88.9221 45.9003 93.2776 93.3443 98.0604 96.5421 54.6984 54.7267 95.2877 95.7437 98.8021 66.5854 105.0952 104.8543 103.7248 72.9366 117.4407 80.258 84.2703 131.1537 129.2669 129.2433 130.1439 141.2338 146.7432 146.2194 148.363 148.9969 155.6828 
PEPMASS=678.343
CHARGE=2+
70.0736 263
72.0905 1099
73.0379 171
84.0904 635
86.1073 2421
87.057 257
87.1116 162
89.0701 804
104.0829 472
110.0848 902
120.0959 883
121.0811 268
122.0961 4463
123.0994 254
129.1176 2238
130.1046 352
133.1025 707
136.092 6145
137.0959 553
143.1357 2469
144.0832 232
144.1403 254
146.0792 158
147.1323 704
155.1354 144
157.1533 166
158.1141 199
159.0396 237
159.1095 414
160.0466 116
160.1165 150
165.1118 201
169.1193 349
169.1554 148
171.135 567
173.1467 128
175.1401 1523
177.1314 196
178.0732 343
180.0565 228
183.1344 192
185.1505 135
191.1413 178
197.1893 164
201.1516 228
209.1334 306
210.0519 133
213.0057 177
214.9442 197
219.139 150
228.1603 181
229.1496 203
231.0199 305
231.1258 120
232.9593 167
233.1224 131
239.1448 270
240.1633 1092
241.1687 162
242.1802 317
242.2175 241
244.1229 155
247.2364 465
249.0331 126
250.0162 390
251.1328 5652
252.1367 1031
253.142 133
255.1375 173
256.6622 125
258.1767 263
262.1697 298
263.1779 162
264.0154 113
271.2127 175
272.1935 157
273.0463 414
274.0547 826
274.223 242
275.2432 547
276.2469 116
279.1328 1050
280.1342 188
281.1357 306
283.1805 691
284.1819 157
285.1904 160
286.1793 118
286.9731 110
287.9781 244
290.022 188
291.084 155
291.2681 597
292.0706 205
292.201 224
296.237 188
297.1132 151
297.1969 128
299.2105 434
300.9504 252
305.9871 440
307.0462 1624
308.0468 291
309.0448 231
310.2131 973
311.1786 406
311.3392 116
312.19 202
318.9665 191
322.2284 144
323.0225 184
327.175 122
332.0131 134
334.1851 117
335.0623 597
337.0647 115
342.9847 190
343.1993 197
343.278 248
344.2295 126
344.9965 206
345.9997 151
347.996 158
348.7525 258
353.0765 262
353.262 142
357.2242 117
358.0205 365
361.0011 115
364.0039 220
365.0127 111
366 335
370.2922 455
371.0428 152
371.2754 412
372.2847 102
375.2831 526
376.0337 310
382.2236 191
384.2733 383
384.7714 145
384.9706 119
386.9601 169
387.0453 361
388.0324 116
388.3391 396
393.276 190
397.1903 110
398.2975 114
401.3347 160
401.9804 153
402.2969 245
405.0605 170
408.2453 171
409.0628 535
410.9861 162
418.9574 149
419.9862 245
421.9898 257
423.1533 271
423.3114 223
423.653 129
424.1556 110
426.0128 337
426.2443 161
428.9964 183
433.0954 218
437.8876 109
442.2188 754
443.2242 203
444.0269 645
444.2605 184
447.0173 161
448.0063 127
448.2734 154
449.0748 507
449.2853 226
452.9796 167
457.8188 377
457.9487 126
458.3191 166
459.015 125
459.9998 242
461.0224 144
461.9453 154
467.1949 249
471.8201 119
472.0232 102
472.32 122
477.0197 235
477.314 181
479.0225 144
480.0056 109
480.8235 159
481.3276 108
485.2054 109
485.2142 253
494.3548 249
494.9852 108
495.3313 335
499.3251 123
501.0523 150
512.3607 883
513.3658 245
513.7918 264
514.289 139
515.9898 401
516.3052 195
516.8007 191
517.3903 236
525.3471 637
526.3526 197
528.2824 104
530.3643 127
543.3579 163
543.7462 112
546.3251 401
546.8302 238
555.3198 150
558.8827 190
559.3826 134
564.3267 125
565.302 242
565.7999 142
566.374 205
567.3787 130
570.3696 122
573.0172 192
581.4072 147
583.4041 1494
584.4071 376
594.4032 269
594.9016 202
618.461 477
619.3436 334
619.4652 140
620.347 144
677.3966 146
677.4261 186
679.5114 108
680.4806 588
681.487 329
682.4338 142
682.7717 122
696.4999 1053
697.5095 423
717.5403 222
751.9716 124
767.5471 1853
768.5536 851
769.5575 273
817.0108 134
831.5994 331
880.5396 189
903.0517 133
914.6405 1252
915.638 666
960.6507 650
961.6572 275
1059.7178 176
1077.7325 409
1078.7194 290
1116.7495 275
1117.7644 196
1187.8174 263
END IONS
BEGIN IONS
TITLE=Spectrum 3 DRIFT_TIME= 16.6227 62.2295 30.166 34.4592 16.5446 24.3203 62.2925 153.9036 49.5184 50.8133 154.8563 53.3152 125.4416 56.6496 108.2318 55.1669 60.3072 20.0217 141.6637 55.8158 53.3549 72.1918 16.888 62.2178 49.6152 34.6111 24.1149 57.5479 55.0617 60.7141 46.748 56.6726 60.887 55.9477 125.4658 109.2353 30.263 23.5573 16.877 47.8164 142.197 58.5347 29.5035 44.6155 49.6061 37.9526 73.1751 43.6571 179.0998 49.3118 155.4863 58.6803 44.4127 84.5052 49.3504 60.9839 16.2296 31.778297 21.0186 55.4066 57.9391 55.2584 44.3258 45.9719 61.0936 45.4345 176.263 56.8179 55.8701 44.7842 38.7929 50.5535 37.5727 55.9855 51.9602 42.4192 33.4664 48.156 49.0993 43.7659 53.4087 31.113098 37.5439 36.5819 44.7842 49.1551 47.7968 53.5944 16.4501 18.3481 35.8497 60.956 37.6668 40.932 36.1639 36.09 29.1735 36.725 39.4805 37.9986 71.8412 22.5017 47.1191 85.1905 54.8937 29.2971 52.1061 55.4926 46.314 16.6491 20.6501 56.2202 43.1178 50.0449 45.8068 48.8768 36.8005 36.5859 48.6714 59.4723 41.8082 27.675 31.2905 52.3734 67.5553 149.0048 41.8023 42.0972 47.7822 17.5248 36.8719 32.667 44.5941 62.1766 34.5078 57.1177 124.6247 16.6227 45.3983 26.7661 62.2665 49.8765 43.3251 56.1173 16.4129 124.3371 18.8375 52.6091 39.4243 54.5811 58.6428 62.6365 57.261 38.603 149.6646 38.6089 42.1217 41.1282 50.8954 45.1628 39.7596 52.0005 139.4854 32.4879 58.2894 43.7671 36.7325 36.2321 46.7194 60.7455 31.154701 24.4585 34.3045 30.0029 29.7683 35.3193 38.1564 30.144 48.201 24.5333 36.0626 37.9252 68.8977 50.1269 51.866 58.1108 72.8559 44.8975 55.5359 29.8957 44.3511 17.0678 44.798 42.4067 53.5505 53.0265 38.1024 80.8458 44.0818 55.1893 31.6763 39.1527 45.1747 36.5483 35.6978 51.8097 45.2773 155.1488 36.679 108.9435 25.8699 41.6594 34.5276 48.3801 40.6045 40.3556 73.5804 56.9947 56.9402 58.7581 16.4891 32.5712 53.5752 44.6119 50.22 35.7333 30.3172 57.7953 44.3117 47.0527 35.4521 57.5368 29.3827 30.4933 47.1469 38.1687 32.848 31.143997 60.4972 21.5021 28.9947 36.1532 52.3047 49.5566 34.8092 42.9616 48.7833 47.5763 36.7499 41.657 42.8083 83.6697 58.6791 34.1442 41.0515 64.8407 36.8005 49.1266 32.3774 43.2146 35.9977 48.4051 36.7711 93.95 52.4549 37.3408 46.9556 41.2024 55.3804 55.375 40.0354 43.2273 35.7375 52.95 34.6475 35.3276 42.1119 40.8141 49.7887 42.5454 32.212 42.7184 32.7459 16.4662 22.8215 54.2151 34.815 53.061 88.1094 39.2668 45.6461 46.5431 42.8056 40.5964 45.4185 33.8995 36.8442 35.4098 40.6293 44.9267 40.7902 44.2605 44.3284 35.1578 51.158 47.6229 55.8076 21.9814 46.9551 31.0397 42.9084 42.4618 45.9541 41.8502 41.2548 38.1622 31.536102 35.0093 26.2883 67.2025 42.1551 122.1222 148.5124 38.6721 35.4559 50.1225 43.0148 44.6815 56.1635 32.0679 51.9892 49.847 26.7939 45.9209 42.2041 36.409 48.6855 27.635 56.6154 31.0257 41.7794 32.6229 53.0425 51.1249 21.6533 44.4359 54.9728 34.1365 44.5927 45.2889 47.4036 55.3726 39.8585 42.4253 35.025 54.8595 42.7506 42.8896 48.4353 52.8462 68.7142 51.8201 41.0472 53.8637 29.0279 31.861702 35.0502 53.5696 37.7963 94.4302 57.1974 36.1252 36.5976 53.5162 37.0196 45.1486 34.718 33.2938 46.7931 35.6296 52.8328 56.6795 37.939 34.6998 47.6983 53.3693 104.442 24.518 31.646599 31.219498 37.0559 37.2591 34.8022 44.3013 31.3726 50.5797 52.9419 54.5175 37.9954 29.9032 80.0467 50.7306 43.7056 48.3507 24.248 57.9911 29.2567 54.9599 55.2364 61.1451 41.829 46.2512 32.6842 35.7093 52.1137 75.6565 54.5594 44.7667 49.6152 38.5033 24.7872 38.0466 49.3306 21.1614 53.6132 41.1765 57.4883 48.5198 28.4327 29.2638 29.9762 49.2042 23.8313 36.559 91.5733 30.275 29.7125 42.6874 44.901 36.9535 78.1706 20.9946 26.1027 48.4237 40.8022 41.8413 62.6097 26.9892 50.9111 30.5714 39.9165 45.2083 41.2713 27.371 43.7334 35.1545 40.9872 52.3594 31.9342 27.2315 40.4936 44.3227 36.1944 52.4377 51.5206 41.0379 35.5271 47.8708 39.8879 52.654 37.9065 25.2333 42.1525 34.6753 46.357 28.2987 36.7053 32.0545 70.2672 47.4968 42.2795 30.5202 48.3154 52.1994 45.3241 45.7133 37.6444 36.2502 45.1061 33.5828 60.6689 33.9461 37.6537 39.7034 44.8828 37.0446 53.4254 53.7823 30.3882 35.7022 36.7541 45.2974 32.0593 74.9784 26.3114 46.6468 34.9818 
PEPMASS=713.897
CHARGE=2+
61.0509 325
714.5031 6811
223.1916 6466
251.1918 6132
110.0896 5983
195.0286 3471
715.008 3298
1176.8325 2835
361.2593 2490
379.2723 2325
1177.838 2111
594.9188 2091
935.6554 1834
695.428 1776
822.5462 1703
609.927 1589
698.4702 1502
175.1482 1440
1048.7563 1426
666.9289 1375
595.4207 1323
492.3789 1301
86.1113 1288
715.5133 1260
719.4756 1241
252.1967 1221
197.0266 1212
697.4266 1111
610.4283 1100
698.9719 1079
565.3282 1057
695.9336 1055
705.498 1035
694.3825 979
936.6511 937
823.5519 920
224.1962 919
205.0611 902
122.1025 893
611.331 889
1049.7548 883
717.4551 882
255.0705 858
680.7738 835
474.9303 788
497.7578 757
530.3921 756
574.8092 752
1289.9395 739
362.2587 738
1178.8368 734
717.9466 726
680.4358 702
659.4596 697
546.3505 695
705.0005 681
110.0469 652
242.1913 652
159.047 635
686.4211 622
697.927 616
694.8846 613
432.9009 608
565.8233 606
705.997 593
584.3048 581
1290.9417 567
696.4509 562
675.4093 552
588.3202 546
460.2719 540
380.2746 531
575.0096 520
669.8498 519
355.2943 517
565.7876 516
307.063 514
611.8326 497
627.3279 497
575.3186 489
595.9235 470
274.9962 469
574.6789 469
473.2508 464
681.1067 463
546.85 460
677.109 460
417.29 456
111.0925 443
136.0992 438
600.9831 433
699.4743 431
498.2597 426
513.8103 421
587.3271 417
601.308 416
403.7049 415
487.7676 415
506.288 412
303.2268 410
493.3786 409
178.1654 407
616.3056 405
605.4783 403
610.9315 401
257.0672 399
647.3684 398
686.9254 395
566.3276 389
72.0943 381
145.0163 379
675.9101 379
516.8419 378
592.35 376
552.848 371
627.8236 368
454.7537 366
587.6646 365
676.7754 364
718.9431 363
528.3081 361
286.9803 359
529.9573 359
400.2614 357
464.3736 349
1159.8116 346
566.2853 344
538.269 342
677.4383 342
129.1247 340
473.7513 339
273.0615 337
588.8143 332
716.0088 332
485.2341 330
688.4138 330
937.6554 330
61.0509 325
584.8034 324
214.1946 321
716.4948 316
592.8496 315
578.3473 313
670.3565 313
70.0774 309
869.6021 303
143.1411 302
634.4121 302
506.7969 301
685.9093 299
676.4547 298
473.2262 297
718.4661 290
460.7659 289
1160.8236 289
454.2767 287
546.8093 285
569.8194 285
631.3799 283
552.3303 281
532.7864 280
647.8717 276
1050.7662 274
560.9648 273
696.9748 271
573.7856 267
619.9893 265
496.2706 264
616.8069 264
706.4956 263
530.2891 260
201.1575 259
432.7388 257
515.3085 256
519.9329 254
601.6392 253
477.798 251
519.6061 251
612.337 251
213.043 249
588.0012 249
325.0098 247
475.2346 246
638.3315 246
634.9209 245
716.8167 244
564.3618 242
607.799 242
667.4063 242
255.1507 241
555.8407 241
133.1073 240
607.305 239
539.7974 238
639.9027 238
625.4061 237
525.7161 236
580.4153 236
575.8041 235
658.4128 235
264.968 233
497.2381 232
450.9196 229
488.2601 229
496.7682 229
646.3066 229
691.7743 228
1179.8436 228
441.2986 226
824.5583 225
476.6047 224
528.808 224
588.6546 224
621.3589 224
503.3429 223
514.3056 223
531.3952 223
688.9044 223
600.9196 222
699.9588 222
89.0737 220
548.3095 220
653.3935 220
681.4371 220
476.9278 219
286.1963 216
515.6405 216
717.1468 216
589.325 215
608.3425 214
600.3165 213
689.4259 213
526.9332 211
256.0788 210
608.8563 210
434.8341 209
561.2952 209
542.613 208
719.4422 208
179.0492 207
404.2073 207
607.0047 207
666.3547 207
713.4678 207
430.771 206
574.2937 205
621.8661 205
704.8032 204
521.5861 201
538.7631 201
570.3216 201
660.4563 201
676.9516 201
504.2089 200
563.2407 200
713.491 197
607.6726 196
383.2271 195
548.6451 195
434.8969 193
466.2633 192
579.8983 192
455.2563 191
645.4403 191
648.3765 190
498.7684 189
498.829 189
562.7442 189
667.9052 189
677.4089 189
304.9487 188
578.781 186
598.9972 186
650.8677 186
589.3219 185
599.972 185
556.8043 184
655.3755 184
622.3639 183
559.2915 181
244.2041 180
547.3076 180
558.6083 180
84.0968 179
134.9864 179
664.3812 179
589.6469 178
653.8924 175
717.4806 175
577.0426 174
691.4426 174
692.109 174
517.3463 173
525.8158 173
699.4466 173
573.6331 172
619.6619 172
588.9944 171
644.0605 171
578.8474 170
543.7616 169
567.3127 169
579.2902 169
601.977 169
646.805 169
677.7678 169
687.4209 169
308.694 168
344.2343 168
530.6291 168
559.8 168
560.8065 168
557.3483 166
558.7789 165
655.0428 165
500.7449 164
555.6229 164
575.3455 164
214.9517 163
474.3576 163
668.7293 163
870.6132 163
1158.8379 161
493.2875 160
598.6667 159
638.8291 159
414.8846 158
556.3294 158
687.9248 158
427.7291 157
635.4212 157
640.3397 157
232.9711 155
699.7904 155
527.8109 154
607.3416 154
628.3443 154
199.2161 152
497.0112 152
542.9463 152
544.2723 152
561.6268 152
625.9044 152
631.8763 152
290.7091 151
535.3098 151
402.3158 150
443.2528 149
685.7706 149
585.3053 148
593.3103 148
666.4033 148
306.9442 147
570.7977 147
589.9895 147
676.9055 147
540.2945 146
566.7999 146
580.4131 146
645.8831 146
465.3794 145
618.3852 145
638.7272 145
682.7931 145
259.017 144
555.9703 144
602.6384 144
682.4529 144
461.2684 143
688.4519 143
708.4364 143
598.3239 142
602.3156 142
660.8467 142
293.1608 141
476.8737 141
485.741 141
573.9536 141
583.8386 141
585.6766 141
661.3548 141
708.9183 141
526.2163 140
592.3008 140
617.3061 140
640.3865 140
768.5738 140
185.1968 139
234.1678 139
258.0723 138
479.2489 138
521.926 138
575.6772 138
688.0963 138
535.9614 137
630.3123 137
655.8895 137
677.8959 137
416.8256 136
520.2685 136
582.3617 136
622.8702 135
688.4312 135
678.1048 134
196.0317 133
710.4213 133
225.1601 132
601.421 132
664.8778 132
415.1945 131
557.8081 131
557.848 131
558.2681 131
592.6404 131
617.8874 131
900.0598 131
427.2752 130
586.7899 130
593.3557 130
622.0173 130
328.2207 129
452.8581 129
619.3334 129
189.0801 128
645.3911 128
654.3794 128
709.4354 128
363.2628 127
501.6365 127
514.6252 127
527.6002 127
547.3571 127
206.0639 126
492.2293 126
577.4878 126
527.2676 125
532.5898 125
561.8304 125
585.8086 125
593.7151 125
937.1028 125
181.0499 124
352.1941 124
423.1567 124
639.0581 124
669.382 124
712.9711 124
476.2378 123
381.2805 122
515.9722 122
519.263 122
522.3304 122
654.0549 122
475.9071 121
589.8184 121
592.9895 121
638.3922 121
652.359 120
282.9807 119
304.996 119
507.3145 119
537.3396 119
586.0095 119
652.8863 119
596.4084 118
662.3777 118
582.0008 117
630.7989 117
644.3957 117
659.3553 117
335.0385 116
472.1959 116
514.8122 116
562.683 116
599.3276 116
206.164 115
492.7401 115
508.9407 114
519.3644 114
619.8261 114
669.0485 114
532.2493 113
538.375 113
356.2974 112
568.3439 112
700.1267 112
478.2993 110
481.7655 110
567.8133 110
574.2888 110
706.9847 109
374.9287 108
452.2847 108
453.3067 108
687.768 108
327.0082 107
438.208 107
418.2861 106
496.6439 106
594.9832 106
619.3362 106
522.8383 105
535.6279 105
899.5685 105
488.5545 104
558.3455 104
595.9804 102
END IONS
BEGIN IONS
TITLE=Spectrum 4 DRIFT_TIME= 16.3538 16.5499 16.2332 16.4149 16.6617 16.0751 16.3407 16.2764 16.9118 28.2173 16.2177 16.9246 16.6691 16.2727 16.1803 16.3406 17.0117 17.4205 16.7309 16.8366 17.4276 17.4559 16.9165 22.2428 18.2855 18.3293 16.336 18.7434 20.729 17.8616 20.2595 18.2931 20.8367 20.0279 20.4085 18.1122 19.9456 22.3207 20.0781 20.0713 19.0118 19.3979 21.8294 20.9035 24.8025 21.2629 25.0455 24.2716 24.2904 28.0148 28.1043 24.4499 23.326 25.2598 23.4758 25.293 23.9849 23.9696 24.8075 26.9266 27.0162 26.2918 27.8785 28.1761 31.033401 28.2173 31.1069 27.0109 27.1784 25.4812 28.6661 28.9924 30.2791 32.1846 39.4736 33.3559 28.2256 29.9486 30.1179 29.4311 30.1931 30.633 29.2139 31.725502 32.7326 32.0488 34.9618 33.1667 33.4987 30.9069 36.7572 34.6428 38.1213 27.4348 40.3082 34.982 21.965 45.4712 44.977 45.1487 26.2444 40.0739 28.256 33.3591 33.0091 22.002 38.3745 42.292 44.4647 38.7586 44.7595 38.7023 37.9274 38.4642 41.2677 45.58 37.6248 42.1612 37.5077 31.936897 39.6776 45.0215 32.9174 27.8384 45.169 29.998 47.6355 46.3661 49.909 52.4572 52.0706 46.002 52.5656 31.0205 31.013 48.7572 29.1751 28.9024 50.122 41.078 51.746 58.8282 57.0609 59.8569 59.2832 50.863 30.4462 42.117 54.3778 32.1725 35.1335 67.8852 34.6093 61.4773 61.6985 53.6091 36.5034 53.4661 26.0359 43.3898 34.691 54.1055 54.6026 64.8095 31.7 38.8799 36.4856 37.0688 34.4856 63.312897 38.6532 64.4423 38.5908 63.5559 61.8179 37.8182 57.8849 36.0165 36.6201 36.5143 27.1362 26.0753 25.9428 37.3973 36.8617 36.2255 38.5883 66.3248 65.6238 38.003 48.4806 34.5206 34.5863 36.6189 36.5929 36.0051 63.301804 62.7571 35.7763 39.3531 39.2301 40.0923 40.7889 55.9181 36.0682 36.3481 56.1726 39.0289 37.6049 37.9474 37.8178 28.7274 39.8773 28.8837 40.9612 41.0231 41.632 34.1418 39.2912 71.1186 39.5821 71.8426 49.9582 31.854797 38.0758 38.8412 41.7395 42.3485 42.2414 30.2056 29.9872 41.6591 30.9551 40.9271 39.9179 43.3624 29.8607 29.9304 29.7094 37.1738 37.7311 45.4783 41.1727 38.2383 40.7197 37.6208 40.3272 40.1963 29.5576 29.2043 42.4178 41.9357 41.8348 31.095001 30.9705 31.547699 29.9921 30.3912 39.4546 42.3753 42.0722 42.1259 31.555 41.957 42.4223 41.8027 42.1783 42.1591 30.9986 43.1908 31.859001 42.8543 31.068 72.604 41.2138 40.8949 49.1147 41.8795 49.6281 42.7598 49.5498 32.7244 32.6238 42.1319 43.819 93.4341 45.6693 46.4037 46.3141 46.6967 68.1655 32.6118 44.5689 32.1834 45.3347 43.6592 42.3271 46.044 32.6038 32.9728 41.4037 32.8361 41.4344 42.5057 75.0387 43.6502 32.3994 32.3711 75.0118 33.3059 42.5911 33.7375 41.7578 33.7401 41.9839 72.3885 46.6724 46.716 46.3318 41.8241 46.3742 34.4427 42.2835 46.5389 42.394 44.761 45.0218 44.2926 40.915 43.02 32.4527 32.638 71.3655 32.9462 70.3738 33.306 42.8567 32.9885 37.6491 43.8944 39.0859 36.2181 43.8476 43.8186 43.1171 39.2177 43.4669 44.1047 44.4599 43.8605 43.2722 83.1474 72.9299 82.274 35.8491 36.1266 36.4152 34.738 44.4124 44.3334 45.5757 44.8783 36.4772 36.7996 49.1229 36.1108 44.9339 35.4548 75.0118 34.1718 44.826 33.8182 34.308 45.1964 74.4865 34.7378 45.264 34.0267 35.8516 49.7737 34.5118 49.4554 48.6992 37.5747 37.0938 47.9986 35.7031 35.0264 43.0122 84.3648 42.4362 35.2421 35.6194 49.2428 48.7984 35.4272 35.009 35.8156 36.0729 35.7194 35.7153 36.4338 35.4241 35.3535 48.1187 48.3761 36.778 44.7594 37.3502 49.8448 103.199 36.4129 49.2271 47.427 103.9472 47.9848 47.7794 48.0313 49.2783 47.7349 35.7252 35.74 36.1104 49.1496 49.0742 49.0556 49.6326 50.2072 36.716 36.6805 48.6851 38.4592 47.6603 38.9526 50.1161 51.1933 48.8454 87.8041 49.3478 88.3292 50.9544 49.0903 49.1266 41.7266 40.9686 42.039 52.0973 52.1409 53.2949 85.1619 85.895 50.3087 51.262 50.3265 40.2698 39.8565 93.4321 51.432 90.3629 50.7963 51.0585 52.5714 51.6459 52.2046 40.1845 51.3088 54.1744 53.668 52.6435 52.5833 53.0766 52.6777 41.4532 41.1606 40.3007 40.7018 40.7877 54.9397 54.9164 55.2433 55.7604 54.0952 54.9642 54.6149 48.0698 55.1347 44.377 44.8522 113.1112 53.8001 40.5976 56.0916 40.8831 40.9481 55.4918 51.7392 55.7294 55.6323 40.1133 55.4695 39.468 39.7916 55.0993 41.1481 55.5067 42.382 41.1501 57.6797 58.0209 55.9328 53.8999 42.3061 46.1953 43.1804 43.4326 43.9203 45.0946 54.1467 54.864 54.7721 55.1394 47.5289 47.7819 55.0518 92.2817 43.3773 42.9133 43.2743 43.0754 54.425 43.3805 43.2866 56.4194 57.072 57.9755 59.6577 59.6964 58.6359 57.1798 47.8402 48.1523 58.2065 47.5839 48.2336 48.4042 47.8496 93.3801 91.2943 60.6975 60.3042 62.1337 48.3203 50.0854 60.4322 61.0001 59.65 58.5576 91.3103 91.3779 49.8524 49.834 62.077 49.8076 62.938 49.6742 50.0955 61.982 49.3983 62.9126 98.2577 99.6249 63.2334 101.7361 60.7025 92.9351 62.1542 50.0351 61.9292 62.1583 61.7505 92.1088 93.8201 101.2737 99.9142 63.267 63.379105 96.3276 61.4786 97.4073 98.8194 63.6875 61.604 65.7328 63.830597 63.796097 65.5915 66.159 65.3757 65.1888 66.229 71.7312 71.5952 71.5201 105.7493 110.447 113.0657 113.159 107.5051 110.8342 109.5379 109.2714 74.8657 76.1833 76.3378 76.4025 75.656 77.3324 76.4531 77.2542 83.5347 82.8487 123.8579 128.3211 128.2335 130.9834 125.1227 124.9366 123.9049 124.633 125.3051 88.0191 88.1214 90.0549 130.4747 133.2681 130.0529 136.3738 136.4953 134.7164 132.8155 156.7551 149.7185 149.1732 145.4352 160.5957 161.721 164.0148 161.3489 158.5032 155.8631 157.048 152.3461 152.3036 176.0326 
PEPMASS=720.8745
CHARGE=2+
55.065 215
61.0509 277
69.0819 152
70.0776 1394
72.0936 2991
80.0264 169
84.0594 202
84.0955 308
86.1109 7330
86.1113 123
87.0602 295
87.1142 509
89.0741 634
104.0895 146
110.0464 872
110.0915 505
115.1073 147
120.1011 467
121.0871 157
122.102 1413
129.1243 718
130.1086 228
133.1089 871
134.9869 133
136.0985 7719
137.104 792
140.0664 199
143.1418 597
145.0181 618
147.1384 359
157.16 165
158.1206 141
159.0462 537
159.1203 142
163.0309 159
165.1193 171
171.1434 387
173.1605 168
175.1503 2102
176.1526 236
177.1438 272
178.0827 150
179.0514 193
184.1381 154
185.196 5050
186.1553 225
186.2007 821
195.0298 2716
197.0274 955
199.2146 3930
200.2179 599
201.1588 1028
202.1631 184
204.1692 1525
205.0591 934
205.1747 204
206.0735 128
212.1401 374
213.0425 217
213.1956 3770
214.1972 665
214.9533 253
223.1464 2325
224.1538 348
227.2143 1893
228.175 120
228.2207 285
229.1611 222
230.153 146
232.9705 168
233.1708 295
234.1624 141
235.1838 409
242.1892 259
247.2497 335
249.2034 492
250.0301 125
251.1456 615
252.1556 124
255.0713 701
255.1538 231
256.0807 296
257.0695 301
261.1709 201
263.1822 175
264.9692 212
271.2236 113
273.0589 801
274.0632 103
274.9967 601
277.2061 131
283.1891 164
284.247 165
286.9786 453
288.2521 386
290.195 110
290.7068 226
291.2823 662
296.2498 1030
297.2546 221
299.2207 170
304.9505 186
304.9963 167
307.0602 810
308.0573 141
308.697 163
310.2303 157
313.2436 142
314.2616 1348
315.2217 386
315.2665 246
316.2242 111
317.1337 168
325.0057 144
327.1847 589
331.2599 382
333.0985 108
333.235 713
335.0416 124
340.2236 184
342.9966 140
346.2373 374
347.0235 188
347.7412 113
350.2305 368
360.7487 128
364.251 214
367.9984 165
369.2789 166
371.306 126
376.2893 411
377.214 145
377.2897 114
396.75 211
397.244 125
401.9978 119
403.7012 411
404.202 148
408.047 129
409.0886 257
409.2506 133
412.3242 154
414.3037 187
418.3081 137
419.3189 128
424.2201 215
424.7046 127
424.9167 136
427.2747 172
427.7261 205
430.7712 217
431.3369 204
432.7347 232
435.3443 371
436.3473 125
441.2501 537
441.2962 124
442.2482 139
442.9206 136
442.9335 221
443.2616 133
444.0298 425
446.0295 316
449.3547 154
451.7058 123
454.2732 246
454.7517 365
455.2577 171
458.2722 117
459.3443 372
460.2708 467
460.3448 102
460.7794 185
463.3414 189
465.2839 131
466.2883 116
468.2628 108
470.2626 187
473.254 462
473.7582 329
475.9086 167
476.6074 136
476.9369 140
477.7971 230
478.7873 178
479.2607 131
479.7983 184
480.33 973
481.3313 207
482.8146 167
484.9564 127
485.2406 288
485.7373 176
487.2521 101
487.7665 345
488.2626 179
490.2717 130
491.2638 242
492.2307 174
493.293 176
493.8013 156
494.3054 147
494.8216 129
495.0037 164
496.2705 130
496.7719 193
497.0198 141
497.2415 197
497.7656 537
498.2654 372
500.744 220
501.6429 118
501.8248 121
501.9746 127
502.3201 165
503.3346 147
503.8213 169
504.2124 151
506.2904 406
506.3943 554
506.7931 209
507.405 207
508.9389 118
508.9441 164
510.2474 127
511.2603 130
513.8152 392
514.3142 263
514.8142 110
515.3072 270
515.6374 214
515.8134 127
515.9706 122
516.3085 140
516.7405 182
516.8472 280
519.6014 185
519.9312 221
520.2624 122
521.5925 210
521.9222 178
522.3314 113
525.3246 242
525.7168 248
525.8158 904
526.2205 165
526.3159 587
526.8118 271
526.9306 138
527.2699 168
527.8124 111
528.3075 345
528.8056 231
529.9588 241
530.2876 222
530.6324 121
532.2424 139
532.5773 123
534.2024 118
534.327 6888
534.8284 5036
535.3289 1956
535.6371 131
535.8298 609
536.3277 160
538.2643 378
538.772 198
539.7939 260
539.9546 143
540.3063 164
542.6097 146
542.8299 107
542.956 130
543.3102 164
543.7686 188
544.2607 123
546.3538 467
546.8153 170
546.8544 236
547.3153 139
547.3562 121
548.3055 168
548.6513 122
549.3189 136
550.8357 144
551.4248 238
552.3408 245
552.8501 252
553.3552 244
553.8583 138
554.2944 135
555.6182 198
555.8424 347
555.9687 164
556.331 215
556.8245 168
557.2484 181
557.3384 147
558.28 163
558.6082 166
558.7823 166
558.9489 116
559.2819 129
559.797 138
560.3514 355
560.8019 139
560.9672 261
561.3052 144
561.342 150
561.6403 145
562.3653 126
562.6777 140
562.7475 183
563.0138 117
563.248 131
564.3639 310
564.3716 343
564.8675 259
565.331 1017
565.7848 424
565.8289 760
565.9817 118
566.2875 375
566.3442 246
566.8022 224
566.8292 211
567.3286 136
568.3609 113
569.8156 293
570.3297 191
570.9218 122
571.2685 113
571.3135 350
571.5975 125
572.3162 149
573.6303 199
573.794 248
573.9491 143
574.6822 359
574.8155 634
575.0129 326
575.0131 318
575.3208 343
575.8059 149
576.3116 114
576.7041 148
578.3355 179
578.7831 520
579.2837 422
579.8059 128
580.3033 110
580.418 204
581.3681 103
581.4292 172
582.007 127
582.6639 133
582.9959 137
583.3228 131
583.3813 502
583.8805 330
584.3034 172
584.8018 210
587.3325 508
587.6651 452
587.88 103
587.995 288
588.3209 641
588.3361 181
588.3443 672
588.6442 377
588.821 258
588.98 315
589.3101 230
589.3249 213
589.3404 293
589.6452 153
589.8424 123
590.6372 120
592.2965 122
592.3591 536
592.6262 124
592.8583 262
593.3542 152
593.3879 124
593.7241 120
593.8338 142
594.6649 125
595.9763 127
597.3323 207
597.4378 486
597.8329 136
598.3323 222
598.6686 183
598.87 178
599.3748 184
599.9839 242
600.3105 231
600.6498 169
600.9791 362
601.3162 336
601.6527 256
601.9919 156
602.3141 135
602.6298 146
603.3417 122
606.882 115
607.0083 193
607.2966 207
607.3415 176
607.3639 301
607.5048 248
607.674 143
607.874 220
608.3496 216
608.4996 151
611.3307 981
611.8321 552
612.3417 364
612.854 157
613.3143 132
613.632 124
614.3112 130
614.6502 154
615.8752 3074
616.3776 2412
616.8774 1130
617.3758 299
617.8743 141
619.6615 111
619.9865 122
621.3613 220
621.6874 112
621.8584 157
622.0246 110
622.371 119
625.3976 142
627.3349 331
627.423 418
627.8327 319
628.4267 226
628.9029 181
630.315 176
630.8068 116
631.4226 146
631.7483 203
632.0842 112
634.4185 188
634.9202 145
635.4121 130
635.4591 953
636.4678 366
638.8738 110
640.3568 176
642.9187 125
644.0759 147
644.4006 127
645.4535 365
646.3024 843
646.448 164
646.8086 484
647.3098 216
647.3919 253
647.8719 235
648.3924 125
649.7162 138
650.3551 161
650.4229 155
650.9257 145
651.41 117
652.8776 107
653.3789 111
653.8998 114
654.0489 162
654.3845 130
654.7193 105
655.044 138
655.371 157
655.4278 148
655.9342 204
656.4198 139
658.4248 237
658.9173 220
659.4251 168
661.8628 176
661.8946 208
662.3685 154
663.0991 187
663.4278 153
663.5786 146
663.8973 147
664.0614 204
664.4067 131
664.4127 202
664.7321 167
664.9127 147
666.3492 122
666.9328 558
667.4399 1109
667.6915 232
667.9406 814
668.0286 294
668.3486 132
668.4357 293
668.7054 190
668.9378 140
669.0585 173
669.4026 133
669.4404 158
669.9281 124
670.3561 132
672.3993 136
673.4177 131
677.7672 111
680.0735 156
680.4119 187
680.7658 175
681.1018 129
682.4649 217
682.8175 311
683.143 157
686.421 152
686.7811 132
687.1213 167
688.8336 113
691.4289 122
693.095 758
693.4272 877
693.7628 691
694.0938 312
694.3849 134
694.4287 214
694.7685 150
695.4221 157
697.4225 127
697.9559 162
698.467 204
698.9745 231
699.9607 176
700.4365 165
703.4791 231
703.8105 235
703.9326 188
704.1447 125
705.1331 315
705.4739 237
705.796 108
707.4318 176
709.4449 118
711.462 187
711.9709 180
712.4762 189
713.8121 239
714.1466 248
715.9993 113
716.4976 271
716.9655 191
717.4464 165
718.4066 281
719.4202 152
719.481 384
719.8132 1507
719.977 580
720.1486 1365
720.4839 515
720.4848 752
720.8172 394
720.9828 217
721.1504 138
721.478 123
721.51 177
722.5087 530
723.4738 123
723.5272 416
724.455 127
724.5013 198
725.001 1772
725.153 186
725.4997 1310
726.002 592
726.4714 158
735.4446 287
736.4234 166
741.4807 496
742.4818 260
742.5019 124
742.9898 111
750.5078 963
750.9587 124
751.5121 424
752.4524 137
756.5114 105
759.9271 111
770.9854 125
772.4855 127
772.9844 161
773.5293 464
774.0304 301
778.9939 126
787.4981 196
788.0036 190
830.0813 861
830.5848 615
831.0931 221
847.4719 207
856.5336 594
857.5304 276
864.4924 375
864.5025 305
865.5486 2944
866.5551 1364
867.5595 413
870.0634 167
885.1144 209
885.6103 627
886.1068 440
886.6142 155
894.1257 729
894.6244 528
895.1178 160
950.674 303
951.1799 224
953.5616 149
964.6318 2016
965.6422 1034
966.639 348
966.6566 262
970.5951 1005
971.5961 610
972.5908 300
981.5646 161
986.1946 247
986.7009 226
987.1908 120
1027.583 144
1049.643 139
1050.6375 271
1067.6558 2998
1068.6631 2027
1069.6582 784
1070.6549 219
1078.8252 305
1127.7325 718
1128.7468 434
1129.7552 165
1214.7719 2298
1215.7803 1541
1216.7771 532
1216.7847 535
1217.7935 181
1230.7504 651
1231.7421 404
1231.7697 399
1232.7645 198
1327.8884 153
END IONS
BEGIN IONS
TITLE=Spectrum 5 DRIFT_TIME= 16.2629 16.21 16.3187 16.5623 16.5937 16.8172 16.2205 16.8222 16.6716 16.4757 16.4543 17.1126 17.2896 16.6607 17.1184 16.7704 16.8844 17.224 17.2271 17.0742 16.9072 18.1549 18.6378 20.1281 20.4257 17.6954 17.3055 18.1267 17.6775 20.2861 18.2223 20.4848 19.9883 19.2241 18.2215 19.6327 18.392 19.2469 20.0448 20.2512 18.477 18.8855 21.9444 22.9577 24.6752 23.6419 24.2889 27.2433 26.7099 27.0356 23.9635 24.9258 21.9303 29.8098 26.0374 25.8991 27.2488 27.3931 30.4469 30.7397 29.1861 25.8171 30.0735 33.1966 30.1452 38.7358 29.6085 39.7954 28.0148 31.9011 29.8271 29.172 35.114 30.706 29.9057 32.9425 28.0657 34.9648 32.5146 32.8039 36.8518 32.7752 34.3785 30.4956 35.0024 34.7274 41.0004 36.1275 27.3905 37.2394 29.0185 33.2588 21.911 32.0436 45.1272 44.3789 36.6307 37.7679 34.4746 33.1169 33.4414 21.7585 33.6499 45.4193 38.1404 38.2671 50.2517 45.6991 41.7054 40.7386 38.6728 44.4469 40.3859 36.2029 36.2803 40.3725 36.884 43.3182 44.2665 43.2268 40.5546 26.3321 40.8261 37.219 45.6032 51.0357 42.3209 43.9968 44.8256 45.4439 47.4848 37.0724 30.8938 43.2846 55.1787 43.0132 49.0811 48.7942 46.4449 46.0681 45.7313 41.9266 57.8529 30.0731 57.6372 56.093 28.9854 29.1776 28.8254 51.9478 55.2764 41.5988 46.8777 47.2721 45.6618 47.837 57.0449 32.1662 47.8903 56.5655 56.1809 30.2452 32.6792 32.0179 40.8673 48.1405 34.3723 34.6861 53.0825 34.4975 33.504 37.0739 33.6293 60.4325 39.7631 39.7634 31.8101 45.0821 37.8676 36.673 51.7245 36.1597 60.2433 38.1946 45.9257 36.2168 36.5018 26.7533 25.0956 52.4961 54.065 36.046 59.9311 36.096 61.1068 34.5322 34.5835 36.9871 37.0677 36.9372 37.3664 37.6197 36.7915 54.163 37.3368 37.7421 37.5054 38.1947 38.0759 37.9267 39.1769 72.9053 40.1077 39.913 42.8129 40.7953 30.7807 68.712 74.4698 42.3339 49.6203 43.9091 45.1211 44.0158 45.2812 42.9171 43.2106 48.2222 47.452 45.4438 43.1981 43.6738 45.8511 45.6374 45.2417 45.0089 49.5058 49.1345 49.805 49.3489 49.0256 77.6746 50.4084 49.9158 53.2249 41.4092 51.1675 41.3536 41.0986 41.3957 88.3206 41.306 41.1426 41.3329 88.5933 52.4293 52.6736 52.4149 85.5644 86.1292 51.067 50.8545 55.7691 55.1025 88.6055 55.4843 54.5106 51.9991 52.875 53.0251 95.0722 58.5099 57.8898 59.7561 60.4972 96.2548 96.9902 99.4895 102.0836 66.4924 66.3707 67.7999 65.1125 64.1705 111.1731 69.2079 69.237 68.4709 73.7043 72.2264 72.3861 121.9109 124.8279 125.2186 121.9306 129.6158 133.7429 132.209 139.7953 136.9542 135.9723 
PEPMASS=631.803
CHARGE=2+
55.063 201
69.0794 287
70.0748 371
72.0908 2296
84.0925 315
86.1075 5181
87.0563 341
87.1113 403
89.0722 916
104.0868 211
110.087 551
116.0873 142
120.0968 4201
121.0815 376
121.1 429
122.0982 2516
123.1001 185
129.1205 475
130.1044 265
132.1001 183
133.1042 1068
136.0952 905
137.1001 125
143.1373 168
145.0102 226
145.117 1216
147.1016 189
147.1327 433
149.1189 135
157.1554 225
158.1127 266
159.0407 372
159.1138 693
160.1147 141
165.1146 313
169.157 122
170.0834 308
173.1141 483
175.1424 1570
176.1461 155
177.1371 283
178.0792 467
179.0497 184
191.1444 262
195.0229 484
197.0199 222
197.1555 169
199.2078 2488
200.1689 138
200.2102 367
205.0519 125
206.0584 168
210.0551 153
213.0083 181
214.9456 232
215.1703 126
219.1786 2182
220.1827 316
227.2057 648
228.208 147
231.0228 306
232.9632 268
235.174 120
246.2161 413
247.178 521
247.2406 513
248.1787 133
248.244 116
250.0219 443
251.1372 286
252.1434 261
253.1288 184
255.1818 129
256.0756 237
259.1303 257
265.1556 168
268.0409 112
268.202 267
271.1407 450
272.1628 262
272.2119 322
273.0493 1888
274.0569 384
274.9851 295
279.9948 107
281.1447 130
284.2332 132
286.1766 552
286.9739 232
287.1773 176
287.9768 118
290.0221 311
290.7003 117
291.0719 173
291.2721 769
292.2842 111
293.1529 335
300.2141 112
300.9565 109
307.0512 1705
308.0506 257
308.6845 124
309.0499 170
310.2591 427
317.1222 464
319.1224 391
323.2685 170
328.2705 369
330.1816 133
332.9552 374
334.0956 119
334.1868 228
334.9481 109
336.8422 118
339.0336 186
342.9829 249
345.007 190
347.2153 296
347.9914 120
350.176 182
350.9648 349
352.1848 146
352.9642 151
354.8583 321
357.2246 170
357.2601 142
358.0268 337
366.0068 151
367.1887 207
368.1734 156
371.2373 137
372.8711 249
375.7253 145
376.0397 159
381.3016 282
383.0601 250
385.2019 462
386.2048 150
392.9948 199
394.0066 256
394.9947 155
396.8881 503
397.3152 393
397.6975 110
398.313 137
399.3122 244
400.6704 112
403.6883 290
404.1921 177
408.1911 248
409.3008 601
411.9079 183
412.0198 175
413.0025 251
414.0048 109
416.9693 146
417.2994 348
418.2422 139
418.9663 214
422.2143 347
423.2148 132
424.1513 137
426.2495 112
427.7147 136
429.9201 379
430.9987 269
431.2493 108
432.7205 299
433.1031 182
433.2218 111
440.2584 107
441.2743 118
443.2428 159
446.2935 199
447.78 222
448.2843 161
451.6957 121
453.9358 164
454.2615 126
454.7319 225
455.0188 134
455.24 173
458.2856 244
460.2602 190
471.9457 183
473.2363 210
473.7355 128
475.8918 107
476.9218 120
477.0226 272
479.0203 194
479.2401 146
479.241 273
482.7685 260
484.2829 140
485.2206 276
485.7275 138
487.7443 161
488.2496 114
490.7832 288
491.2812 131
491.7848 140
495.7781 102
497.0148 130
497.7492 434
498.2417 243
498.7409 137
500.7293 138
504.7838 528
505.2897 261
506.2789 135
511.3304 280
513.7903 380
514.2938 144
516.8263 204
528.2883 197
529.9412 126
537.2508 266
538.3599 304
539.7842 137
546.3382 155
548.3219 222
552.3105 188
553.3288 137
553.8381 149
554.3428 224
554.846 174
560.3466 433
560.8446 236
561.3317 151
565.7873 110
566.2796 105
568.3527 129
570.3404 640
570.8365 370
571.3418 136
602.3643 261
602.8665 147
603.3722 145
603.8882 275
604.3893 169
608.3039 443
612.3772 338
612.8705 223
625.3888 258
625.7207 144
625.8907 201
626.0544 250
626.3909 118
631.3936 591
631.4264 720
631.7323 528
632.0643 434
632.4008 168
632.4263 363
634.39 966
634.896 703
635.3993 274
642.4435 2112
643.4483 849
646.3752 207
646.8836 182
661.4082 126
661.9195 119
667.4275 189
681.4079 168
681.9138 161
689.9262 451
690.4295 350
690.9219 181
737.4211 159
746.4815 355
746.9767 299
747.4752 248
747.9571 140
755.4276 397
756.4392 149
757.482 291
771.3834 184
782.0012 194
782.4993 158
796.9844 216
796.9977 229
797.4948 223
830.5007 286
832.5349 295
833.0256 291
833.539 167
853.5438 184
854.0482 238
854.5479 123
945.5446 345
946.5631 212
1008.6302 331
1009.6239 209
1016.595 474
1016.5959 547
1017.6026 344
1040.6476 205
1041.6478 152
1107.705 228
END IONS
BEGIN IONS
TITLE=Spectrum 6 DRIFT_TIME= 16.517 16.4467 16.7189 16.6034 16.456 16.3708 16.9246 16.1985 16.889 16.5893 16.2597 16.7303 16.6385 17.2839 16.8048 17.2406 17.0232 18.2074 18.295 16.2439 18.736 20.2768 17.1905 18.2258 20.6283 20.6754 18.1522 20.043 21.6106 19.9562 19.0112 20.9727 24.8008 21.491 24.6678 24.362 24.397 28.1965 27.981 24.6199 25.4181 23.3242 26.0857 24.5327 27.1635 27.0847 25.721 27.8154 28.4905 31.107903 31.228203 28.3173 25.951 28.4565 28.142 30.0402 28.5728 32.7882 31.703499 39.2138 33.4643 29.9245 30.2475 29.5271 30.1432 29.2888 30.7397 31.8838 33.1724 34.6711 32.7032 40.8226 31.064598 36.7121 34.2209 38.4414 27.6018 40.4223 44.8887 46.0236 44.8383 45.1224 26.3211 37.382 41.0317 45.7708 33.6144 39.0093 41.8985 44.6429 39.2706 44.6362 41.2312 41.0468 47.0481 46.1189 42.375 41.7794 38.3322 32.2878 45.2504 45.0958 44.8653 47.2111 49.5669 52.636 49.0159 52.198 46.3089 51.9606 28.8382 56.5496 55.7664 58.9602 51.1271 35.2449 53.1102 34.1332 61.8934 62.0854 54.0586 37.3939 53.8561 65.054 38.7858 36.9224 36.8644 64.2997 39.0223 62.8542 38.6804 63.413498 36.5784 36.653 26.0333 66.9082 38.5988 38.1239 66.7389 66.6919 38.1763 38.8357 34.7395 39.9732 36.7241 36.9846 63.2677 61.8341 38.6816 36.0676 38.9602 37.5675 37.0687 37.6674 28.8934 40.8513 39.0913 72.0974 39.851 71.0269 31.968903 41.2547 29.5642 41.187 30.3771 29.9708 43.0132 40.0201 32.1478 29.7377 30.1212 40.7541 40.5669 40.3085 40.351 29.6906 41.3315 42.0003 31.2603 31.2695 29.7881 41.3902 42.3738 42.0925 42.058 41.9738 42.4752 42.1174 42.0486 42.193 48.459 48.2912 71.159 49.0036 42.2815 49.1006 49.377 79.2737 92.882 45.1096 46.0479 40.2149 74.8425 46.1509 67.8665 32.5787 44.2859 31.4399 44.4471 42.0906 33.2 75.5686 32.2781 32.6202 75.7702 33.8733 41.3902 42.6395 47.0753 46.7378 46.6943 41.989 46.1549 42.168 46.9939 44.0307 41.1609 42.845 70.268 42.8848 38.1447 43.9138 35.8748 43.9252 35.4525 37.3206 44.4032 39.2755 38.9268 43.0551 43.9596 44.6485 43.8108 75.7094 35.4273 43.7347 44.3454 44.9174 35.3357 45.624 36.729 36.7232 37.2287 45.2681 73.4014 34.6483 45.1769 34.5723 34.6007 45.8842 74.7916 34.9812 34.2451 48.6345 47.444 47.6011 49.8248 35.184 49.8445 49.6939 37.6207 37.0608 47.3161 35.5992 49.2777 49.1404 44.3739 84.1279 43.1965 35.2038 82.7552 35.8417 49.3829 48.8332 35.3865 35.5755 35.45 36.0716 35.271 34.6672 36.2123 35.1652 49.3965 36.7965 36.4498 49.2615 103.1074 49.7928 47.6641 54.4445 48.4105 48.0834 47.7822 48.2493 50.7493 35.9385 35.9785 35.8092 49.0957 49.1737 49.1817 49.1764 48.9375 37.0782 48.9556 37.6845 38.7521 49.4867 48.9605 89.3904 48.2607 89.4168 41.5538 41.4441 35.7927 53.1501 53.2132 85.6422 86.2322 41.8009 39.6342 39.0415 93.9289 51.3637 51.9328 51.0533 52.029 40.6212 52.0563 41.2162 40.8815 40.8221 41.3093 55.5948 54.7848 41.3879 41.215 92.5663 59.6365 53.6086 54.608 110.8605 54.9932 41.2535 41.0133 55.218 40.288 55.4903 52.1918 56.2042 39.7809 55.5772 40.263 40.569 55.7335 41.7911 52.9321 55.1817 41.5016 53.9069 41.2292 57.87 54.6936 57.8304 56.1041 42.3039 41.2809 41.3059 41.358 55.1761 46.4791 44.3883 44.295 99.2001 44.755 54.8341 54.9934 55.0265 54.3444 55.4517 45.7388 44.3301 55.9239 89.6016 43.1346 43.0089 43.1188 43.105 55.2511 43.3509 43.3673 55.608 57.1837 57.0099 56.9525 58.6901 59.7539 60.109 58.9982 48.1873 48.29 58.3065 49.0918 58.5082 48.0092 60.9173 103.5705 47.9241 46.7908 96.466 59.7489 92.9881 92.3067 97.0603 61.7391 46.7638 62.4845 62.1472 60.6736 60.385 60.6814 58.8706 58.6036 91.3464 49.6679 62.2143 49.2567 62.8803 49.7312 49.7547 63.1081 98.0482 50.1866 64.1294 48.8489 97.7112 62.5521 63.1603 101.3451 57.2858 61.3241 59.0816 93.6231 102.7431 49.9468 61.9071 49.7822 49.0322 61.9074 49.2185 62.3914 60.3145 49.2265 63.4327 49.4414 62.6384 94.556 95.4939 100.644 99.3872 97.529 97.885 64.934 64.0528 64.8693 65.4502 65.5194 65.5859 65.4137 64.7856 107.0686 65.6372 65.478 65.9565 73.4531 72.1672 72.0626 71.793 71.7082 107.112 107.9699 112.1984 112.2582 109.4385 109.5702 110.416 110.4525 71.7331 71.2296 78.3833 74.2736 76.1051 76.0409 76.2351 75.9035 77.1975 77.2788 77.4071 77.0732 117.3956 82.887 83.122 83.7703 82.4912 128.9688 127.7632 128.0497 127.3927 124.5667 123.8268 124.2499 87.9447 88.7668 88.2592 87.837 132.052 135.6913 135.5705 135.9908 135.6434 152.9671 146.2405 148.0171 148.2862 163.2231 162.4429 158.7141 164.5572 153.1241 156.7772 151.9269 155.0741 173.7619 
PEPMASS=721.8535
CHARGE=2+
55.0647 208
70.0781 1187
72.0939 3701
73.0983 178
84.0585 209
84.0961 230
86.1108 8133
87.059 309
87.1149 619
89.0746 627
110.047 671
110.0918 460
119.0679 152
120.1018 471
122.103 260
129.1273 547
133.1101 710
136.0998 8824
137.1041 868
140.0677 177
143.1436 695
145.0195 335
147.0698 153
147.1392 374
157.1635 244
159.0492 221
165.12 183
171.1422 615
173.1581 165
175.151 1619
177.1434 307
184.1406 153
185.1977 5896
186.1575 194
186.2033 868
195.032 1228
197.0292 405
199.2161 4383
200.2209 719
201.161 488
204.1711 1879
205.0605 841
205.1719 161
212.1419 355
213.1972 4714
214.1991 741
214.9592 145
223.1474 2668
224.1491 390
227.2161 2102
228.2176 330
229.1651 139
232.9694 126
233.1694 319
234.1721 153
235.1825 429
239.1589 134
239.2174 130
242.1946 442
247.2466 354
249.2067 535
251.1463 690
252.1565 126
255.0764 340
255.1547 189
257.0699 142
261.1726 234
262.166 158
263.1836 149
271.2216 135
273.058 117
273.2701 108
275.0005 530
277.2056 135
283.1917 171
284.2455 187
286.9885 137
288.2551 332
291.2832 672
292.2856 151
296.2494 1048
297.2551 224
299.2202 316
301.21 104
301.2812 119
303.2648 119
307.0668 194
310.2349 111
313.2434 193
314.2646 1722
315.2245 431
315.2692 323
327.1883 459
328.1877 147
331.261 500
332.2682 129
333.2371 802
334.2431 130
335.0419 110
340.2317 120
346.2353 323
350.2338 474
351.2353 104
364.2507 288
369.2794 117
371.3098 151
375.2278 118
376.2926 788
377.2151 130
377.2948 173
403.7064 238
412.327 195
414.3053 138
418.3143 139
424.231 155
430.7705 133
431.2203 180
432.7373 128
435.3466 473
436.3415 134
441.2548 443
441.2972 125
442.2509 160
449.3562 249
454.2807 258
454.7593 252
455.2566 120
459.3454 422
460.2755 283
460.3441 142
460.7802 121
463.3373 286
473.2604 300
473.763 162
476.6043 130
477.3477 201
477.7972 152
478.2947 112
480.333 885
481.3345 270
482.8223 227
483.3289 138
485.242 261
485.7941 163
487.7689 229
488.2701 111
490.2959 192
491.2734 202
493.2948 155
496.7765 106
497.2501 126
497.7652 358
498.2647 215
498.7611 144
501.6478 150
503.8381 115
506.2966 218
506.4026 672
506.8 138
507.4037 254
508.944 111
513.8129 259
514.2937 103
514.3198 164
515.3148 167
515.6475 108
516.8496 213
517.3134 137
518.9425 130
519.6014 195
519.9377 186
525.3287 239
525.82 1072
526.3177 668
526.8175 221
526.9387 117
528.3075 227
528.8046 169
529.9697 188
530.3018 166
532.2534 104
532.7869 103
534.3303 9182
534.8327 6699
535.3342 2768
535.8341 784
536.3416 236
538.273 264
538.7728 160
539.8056 166
539.9095 196
540.4078 126
543.3208 176
546.3559 372
546.8239 151
546.8596 201
547.3621 126
548.4492 122
551.4297 236
552.3401 164
552.8508 115
553.2454 142
553.3728 129
553.8642 110
554.2876 107
555.6227 133
555.8406 279
555.9566 112
556.3439 166
557.8115 104
558.2872 124
560.3438 273
560.9713 163
561.2986 133
561.3411 136
562.6922 131
562.746 115
563.2617 108
564.3723 341
564.8669 297
565.3315 654
565.7893 430
565.8327 385
566.2918 257
566.3401 150
566.8097 126
569.824 207
570.3522 119
571.3184 243
573.7823 165
574.6806 343
574.8178 404
575.0122 258
575.3242 336
575.3524 165
575.688 124
575.8072 148
576.706 135
577.0492 137
578.3636 132
578.7882 265
579.2953 184
579.7942 126
581.3734 171
582.6658 142
583.3876 463
583.8827 321
584.3805 135
585.6804 122
586.8095 112
587.3294 318
587.6689 311
588.0005 227
588.3249 375
588.346 573
588.6578 174
588.8194 244
588.9822 189
589.3161 174
589.3367 159
589.3413 204
589.6499 129
589.9851 128
590.4095 160
590.7504 181
591.0794 136
592.3594 534
592.6576 147
592.862 337
593.36 198
593.391 122
593.724 146
593.8462 141
594.6747 127
595.9081 109
596.4103 131
597.3295 146
597.4401 774
597.8375 142
598.3366 193
598.4407 229
598.6702 155
598.8676 179
599.3807 135
599.9854 196
600.3206 198
600.6536 102
600.9869 251
601.3162 237
601.6444 172
601.9817 165
602.3062 163
606.8743 138
607.0086 181
607.3356 152
607.3679 465
607.4981 353
607.8713 364
608.3619 202
608.4485 167
608.8662 130
611.3379 565
611.8367 483
612.3413 181
612.889 117
613.9782 118
614.3313 128
614.6588 111
615.8769 5267
616.3784 3981
616.8821 1769
617.383 619
617.8699 188
620.0051 140
621.3673 146
621.6894 103
622.0191 122
625.3974 166
627.3308 293
627.4256 538
627.8362 230
628.4281 178
631.4252 149
631.7574 215
632.9895 107
634.1179 125
634.4323 191
635.4647 1049
636.4618 382
638.7324 118
644.061 149
644.402 135
645.4519 150
646.3092 711
646.8145 384
647.3244 171
647.8847 142
649.7347 110
650.8747 147
654.0539 140
654.3915 158
655.0403 126
655.3819 134
655.4385 140
655.9358 142
657.0525 148
657.3825 113
657.5091 128
659.4846 156
661.8828 183
662.3723 138
663.5732 188
663.8962 127
664.0746 219
664.4025 240
664.433 158
664.7333 144
664.9383 154
666.354 168
667.4363 205
667.7131 159
667.9381 411
668.0325 193
668.3692 146
668.4381 323
668.731 199
668.8279 155
668.9376 164
669.0616 223
669.1929 120
669.386 153
669.4422 179
669.8515 132
669.9348 158
670.3563 116
673.4241 114
674.0762 132
674.397 150
674.7333 125
674.925 173
677.4337 111
680.0715 118
680.434 252
680.5168 129
680.7738 182
682.4757 354
682.8101 351
683.1495 215
686.4019 128
686.8988 114
687.7827 135
690.0878 111
691.3755 111
692.4287 150
693.0982 536
693.4366 607
693.7685 500
694.1003 290
694.3914 133
694.4338 186
694.7553 111
694.9044 136
695.4255 175
695.9226 113
696.4061 121
697.4289 139
698.9789 168
699.4579 107
699.9593 129
703.4825 258
703.8153 352
703.9256 222
704.1494 277
704.4372 168
704.4962 121
704.9595 143
705.6183 130
705.813 130
706.1361 109
707.435 164
707.4677 119
708.4377 126
709.4423 172
710.5581 118
711.9874 334
712.1429 117
712.4885 252
712.986 158
715.9853 174
716.4984 380
716.9951 270
717.4535 156
717.9607 104
718.4066 197
720.4858 766
720.4903 372
720.8159 571
720.9892 337
721.1521 321
721.4871 172
721.4907 184
721.5263 295
721.8183 130
722.0147 178
722.4773 126
722.5126 675
722.5213 114
723.4775 149
723.527 517
723.9301 123
723.972 139
724.4443 209
724.5001 213
724.5202 250
724.8154 407
725.0048 2072
725.1503 447
725.4862 237
725.5043 1516
725.8054 160
726.0027 743
726.4666 406
726.8109 229
726.9905 615
727.1458 237
727.4982 272
735.4442 324
736.437 189
741.4856 535
742.4979 262
750.5138 944
751.516 461
765.0217 115
772.4886 211
772.9723 120
773.533 927
774.0355 846
774.5349 457
775.032 157
778.9987 149
781.6097 159
787.5045 320
787.9962 313
788.4938 176
808.5918 121
830.0894 1607
830.587 1561
831.0842 740
831.59 288
847.4819 262
848.4778 135
856.5388 657
857.5433 369
864.5027 484
865.5542 3140
866.5622 1562
867.5668 501
869.0392 158
869.5381 155
872.6375 111
885.1219 211
885.6108 1059
886.1099 1031
886.6115 455
887.1138 123
894.1318 1176
894.6266 1239
895.1255 621
895.6368 245
939.5381 111
950.6754 529
951.1745 587
951.6695 331
952.1759 163
964.6434 1946
965.6508 1218
966.6401 394
967.6615 146
970.5938 1242
971.5965 833
972.5894 235
986.2033 412
986.7036 454
987.1978 291
987.692 135
1050.632 306
1067.6637 3906
1068.6663 3010
1069.6665 1221
1070.6738 334
1078.8188 467
1127.7363 859
1128.7418 688
1129.7332 206
1214.7819 2397
1215.7858 1897
1216.7885 737
1216.7941 615
1230.757 770
1231.7572 587
1231.7722 509
1232.773 258
1327.8936 217
END IONS
BEGIN IONS
TITLE=Spectrum 7 DRIFT_TIME= 16.3626 16.5805 16.2946 16.5288 16.8719 16.274 16.5145 16.3766 17.4747 16.7882 17.4297 16.8016 16.7544 18.2484 18.1751 18.9893 18.6579 18.4096 20.2787 20.3165 19.2795 18.419 20.5279 18.8374 19.9625 21.8589 24.5795 24.7908 24.493 25.322 27.9425 25.7208 23.4636 27.1649 25.9158 30.1833 28.3178 31.7612 30.7129 28.8305 34.7458 33.73 31.134201 31.8679 31.6039 34.0678 36.3727 32.4227 36.5582 32.3743 31.874298 33.5055 45.0536 33.1835 44.2175 40.957 40.9235 44.5842 44.9728 47.9642 46.9688 45.6747 51.7898 45.1563 44.3509 50.2179 50.2874 54.6707 50.2485 49.5608 53.5418 31.1335 31.2753 33.3511 32.6116 34.8289 34.8735 65.1842 34.3647 36.8603 65.5437 52.3143 38.9362 37.945 37.578 37.9439 66.7924 37.3374 75.2154 37.9899 67.6733 66.0467 39.4399 71.1379 41.0843 42.1957 70.3208 70.7346 41.3539 38.3465 42.5014 48.8214 42.0609 41.4698 41.374 40.2502 50.3564 50.2654 50.1416 50.6516 41.0999 40.6602 41.3024 45.9185 46.0212 46.504 44.2666 44.2879 44.314 63.2947 45.0678 44.9806 44.865 45.5596 44.7613 36.3342 44.8062 44.4586 50.7035 53.9266 50.7614 53.9214 46.1791 84.1504 46.3464 48.1152 88.8844 45.9898 54.5971 54.5901 53.8697 83.1427 48.2214 84.38 48.821 49.0073 83.908 48.8587 49.7437 49.1851 49.0933 49.6142 49.6667 97.6572 49.341 49.397 49.23 86.2119 58.3963 49.7779 85.1375 50.4706 50.3357 50.6332 57.7281 57.8371 58.0331 56.6974 52.0647 52.8714 51.5403 60.167 60.891 52.524 52.1982 52.5389 53.4854 53.7276 53.0813 53.4451 53.8052 54.2463 55.0959 55.6215 54.7478 55.9751 55.5988 55.3258 55.3057 56.668 54.7229 57.0884 61.2257 60.672 59.1674 58.336 59.8212 103.3685 58.3305 59.1493 60.235 59.0691 59.6437 60.1897 98.4355 66.4946 101.7508 66.9394 66.9029 103.8737 66.7513 67.2925 60.8515 61.089 60.6259 58.5831 59.1955 65.0878 64.8917 65.1414 64.6886 62.2915 62.4331 60.9752 60.7737 98.1241 60.4656 61.3402 98.1245 95.6292 98.0718 109.2143 118.1415 118.4277 120.0827 138.8143 139.9084 136.9358 155.3988 157.5536 157.7682 171.9114 166.2404 172.4403 
PEPMASS=737.4355
CHARGE=2+
70.0775 932
72.0942 755
84.0601 159
84.097 329
86.1114 1625
110.0465 223
110.0914 1934
111.0944 204
120.1022 312
122.1041 944
129.1256 340
130.0893 898
133.1089 161
136.1002 984
137.1047 124
143.1438 145
147.144 135
158.1241 190
159.1211 1501
160.1255 225
166.0911 171
167.1223 130
169.1652 347
170.0913 471
175.1511 1668
184.1508 135
185.1981 646
195.0323 250
197.0315 127
197.1603 111
199.2164 314
204.1724 194
205.0603 173
213.1978 378
214.9582 135
223.1949 627
224.1574 269
227.2136 154
237.1762 377
239.1627 484
251.1957 701
252.1957 132
255.1908 998
256.192 802
257.1935 158
265.1751 258
272.2198 998
273.0603 110
273.2271 119
284.1887 604
285.1943 157
290.0403 103
296.2481 108
307.0662 551
314.2657 157
315.2285 113
327.1909 135
334.2489 839
335.2508 171
338.2482 255
350.2819 202
356.2548 107
364.2958 123
365.2651 426
366.2627 170
368.2985 125
372.2349 163
378.2823 327
383.2787 873
384.2792 232
385.3283 308
394.7344 400
395.2414 151
427.7456 249
428.2415 166
443.7417 281
444.2395 127
447.3478 268
452.2503 117
473.2576 132
475.3245 256
477.0502 124
487.295 256
487.7824 180
489.2549 267
489.7539 151
493.3696 129
497.771 107
498.4303 202
501.2716 123
503.3296 309
504.3332 154
506.296 119
506.3992 218
513.8082 206
514.3197 137
520.3636 343
521.3607 201
522.801 111
525.721 118
528.319 107
537.4172 205
538.2692 108
544.3 234
544.7995 289
545.2957 126
546.4252 3241
546.9288 2061
547.4252 734
547.9309 264
553.3105 653
553.811 450
554.3083 197
560.8379 361
561.3364 277
565.3348 158
565.8134 127
570.798 231
571.3098 171
573.0535 201
574.8391 213
575.3179 111
583.3423 116
584.326 186
584.8157 116
587.341 117
588.3362 118
588.8339 102
595.8934 212
595.9673 349
596.4068 199
596.4692 258
596.859 121
597.4536 131
598.8416 107
599.3644 145
599.4962 566
599.8462 108
600.9614 350
601.4653 216
601.9628 102
605.4631 135
611.3399 139
617.4507 276
617.8552 213
618.3438 189
618.4618 125
618.8555 136
625.3737 288
625.863 276
626.3585 304
626.8614 308
627.3536 324
627.4279 200
627.8581 202
634.8577 363
635.3584 408
635.465 389
635.4983 147
635.8611 176
636.4779 185
639.3728 387
639.8708 248
640.3654 153
644.5039 1398
645.0056 1073
645.5097 465
646.0105 173
646.3051 128
647.374 111
655.9001 128
663.4939 206
663.9906 138
667.8851 261
668.3872 249
668.8744 164
669.3916 104
674.4058 103
676.894 1076
677.3981 916
677.8976 458
678.3939 165
683.4186 144
683.9249 109
685.9333 180
686.4256 211
686.924 128
691.4096 211
691.9019 183
694.3931 255
694.8991 157
699.9299 113
709.9523 229
710.4568 190
710.96 116
715.9451 140
716.4568 123
716.4692 152
717.4539 114
721.9568 141
722.4641 157
722.9534 150
724.9686 407
725.475 301
728.5591 487
728.5601 203
728.5615 500
729.0459 3425
729.5459 2946
729.5577 219
730.0463 1343
730.5477 457
730.9634 761
731.4702 698
731.9629 430
732.4469 488
732.9518 258
737.5591 1458
738.0611 1391
738.5648 682
739.0648 228
739.9713 2199
740.4723 1935
740.9592 1524
741.4601 1100
741.521 954
741.9554 512
742.4603 227
742.5316 342
750.5226 257
762.4116 273
772.4927 177
841.665 1920
842.6673 1010
843.6695 288
954.772 1227
955.7758 685
956.7771 243
1091.8557 747
1092.8632 483
1093.8473 246
1190.9456 382
1190.9517 366
1191.9525 279
END IONS
BEGIN IONS
TITLE=Spectrum 8 DRIFT_TIME= 16.2717 16.4999 16.6565 16.1608 16.3923 16.4165 16.7624 16.8152 19.3765 16.5345 16.283 16.5467 17.0421 16.4772 17.3782 17.0222 16.9401 17.4411 17.264 16.969 22.2855 18.3206 22.1332 18.1841 19.2619 20.4067 16.9868 18.5019 16.268 18.341 18.4402 20.8084 20.6785 19.6665 20.0481 21.6348 19.1136 21.412 21.1276 21.742 22.8597 24.2139 24.1056 24.1307 24.4721 23.935 22.2065 23.4991 24.699 26.0577 26.0062 29.6288 26.0283 26.0401 28.1354 29.047 26.1249 25.8349 30.2058 28.2758 29.6128 39.3961 30.4203 27.8656 25.7156 29.9175 30.132 30.9694 28.9739 32.9007 30.5368 31.8162 28.5917 34.6195 33.5864 34.0839 31.847198 33.6438 33.5814 33.4717 17.5281 32.8711 36.5729 33.5846 31.0677 33.6787 36.1032 32.4117 27.7728 33.5526 35.6194 21.6861 35.2195 32.8761 45.4429 31.5346 36.7465 37.3 39.8124 27.3474 39.0459 33.1013 32.7465 22.3397 37.1692 42.6597 37.9514 22.2177 24.766 41.8048 40.8499 41.8968 39.5951 45.8279 36.2743 40.3972 38.6001 36.7629 25.987 31.8288 43.7451 48.5288 40.3877 26.4558 38.0607 40.5731 40.9716 25.9955 28.2542 36.7568 40.7835 45.3862 37.201 43.1213 53.1556 43.0054 24.7847 46.5353 24.9001 27.1757 23.8918 25.5368 47.5901 36.4585 29.125 28.8211 42.2407 50.946 27.9837 30.9391 50.3037 50.8239 47.0205 54.2659 47.0839 54.1129 43.2468 47.311 53.8315 47.1456 28.0781 41.5986 54.2508 60.3937 29.3381 57.1314 29.1723 29.0446 29.315 22.9186 71.8258 30.8306 54.715 35.3723 32.2485 32.5871 35.2288 57.8973 34.4312 34.4572 23.3066 58.4785 33.4381 34.0252 34.3069 35.6591 37.2474 36.9754 32.9875 33.543 60.0547 36.9536 32.0145 35.2326 37.5372 37.3594 65.7603 38.0569 62.939 24.6789 38.8669 63.890503 59.3274 36.5017 56.0796 36.6221 76.2918 41.3716 24.8836 38.5012 38.7692 38.2795 26.1735 26.8247 36.8902 31.1138 34.879 35.0854 25.8054 26.0478 38.3742 26.0767 34.8884 26.6047 38.8847 26.6915 26.7548 67.905 24.9576 25.6851 36.6327 36.2917 36.6515 27.1701 26.9968 25.9933 25.9305 37.9781 26.5916 37.9384 35.8659 35.9396 36.1653 35.9192 35.6688 36.2429 36.5922 39.7379 39.7458 34.897 34.2607 35.6234 29.2492 28.8417 63.8872 39.6194 36.6876 36.4913 36.8874 36.7926 36.9507 38.9265 41.5619 41.7434 29.411 37.7575 29.5927 36.6756 29.2173 38.7595 37.3855 37.5198 37.2507 38.0267 38.0717 29.6593 29.6568 29.2391 28.8583 30.804 39.0326 39.8887 42.7106 34.6503 34.9748 34.4608 38.8735 42.6234 42.9642 42.1138 30.0019 39.2664 31.7248 43.7046 43.4085 43.2273 43.1767 74.0198 69.0367 30.1879 29.7296 25.8194 29.5339 34.386 39.9778 35.7772 39.309 39.3645 39.2777 43.2609 42.9046 40.8033 40.5227 40.5536 31.0952 43.2152 31.1055 42.8817 30.9379 31.154701 42.9407 31.059502 40.7262 34.3613 31.5934 44.0603 31.058601 44.4099 41.3234 72.5056 41.8134 44.3802 72.596 41.236 44.8649 40.9372 71.6049 40.726 40.7116 41.7667 41.8925 39.7146 39.5373 78.4171 39.5193 42.1835 39.5388 40.1951 78.3897 44.3254 45.0775 43.7572 31.913101 44.3198 41.5325 49.2973 41.8015 49.2835 41.8777 49.7281 42.1043 38.9928 42.3286 42.2059 41.1794 39.7053 39.9131 42.3088 39.9203 41.6728 41.1545 45.8387 45.1722 42.8694 43.0512 45.5019 44.64 38.548 39.7487 40.2603 42.1388 40.9099 41.105 41.0072 41.1806 45.7503 41.8567 42.5116 42.9084 42.5808 32.6604 32.5568 42.7146 33.0447 37.5432 37.3017 37.4621 43.4845 37.7972 37.6764 36.3257 73.3472 46.8893 41.2765 43.8812 43.2829 43.6745 43.4689 37.6639 44.4212 44.3341 44.9047 43.8429 43.4541 43.8642 39.1332 40.5534 40.1477 40.9146 45.0891 40.6024 44.6867 44.7086 39.3387 39.1589 73.9514 38.5281 76.0692 35.939 44.0383 50.0192 73.0137 44.0309 49.9403 82.2587 44.1172 44.8377 80.1795 38.5118 44.1223 48.819 38.9139 63.2499 44.319 37.9241 79.8163 40.7673 45.3863 39.9007 42.9346 42.9785 48.2149 48.5639 48.3396 47.254 48.8433 50.6181 49.2835 51.26 51.0881 51.7096 52.4088 54.0208 52.0567 94.5932 92.9782 52.8477 52.8042 88.6089 94.3002 92.8755 92.6551 90.7088 57.1342 57.0727 57.4873 57.6632 98.7203 98.0465 58.3965 97.0391 57.6597 59.7066 58.5114 58.9578 58.8238 58.8403 58.5138 59.1184 59.3494 60.2737 56.6216 56.5782 59.9536 60.0474 59.49 60.7472 60.5556 60.3998 60.9625 60.6935 60.373 60.4645 60.2297 61.3059 61.4371 61.2752 62.1627 62.7291 63.759796 63.785904 63.82 65.375 64.5979 63.601303 65.9388 65.79 64.8687 67.9038 66.1398 66.1325 66.0837 65.9878 65.8547 119.8699 121.1041 118.6517 111.651 116.4211 133.4525 135.4146 
PEPMASS=573.2875
CHARGE=2+
61.0499 296
70.0765 645
72.0938 278
80.0244 158
84.058 316
84.0936 569
86.1099 1784
89.0737 342
99.0014 197
102.0707 301
110.0447 696
110.0891 374
115.1008 190
119.0681 203
120.0996 1904
121.1025 180
122.1 1427
129.1223 575
130.104 225
133.1054 352
134.9852 222
136.0961 8206
136.9832 193
137.1016 878
143.1385 277
145.0157 555
147.0667 204
147.1356 302
154.0299 200
157.1322 198
158.1177 163
159.0435 1122
163.0292 236
169.1205 156
175.146 2499
177.1298 109
178.0822 272
179.0492 410
185.134 185
186.1521 117
187.1724 198
195.026 2149
196.0274 192
197.0238 1957
198.0281 134
199.0226 140
202.1191 361
205.0576 428
205.1286 146
211.1505 1127
212.1542 210
213.0086 159
214.1525 196
214.9494 784
228.1777 383
231.0255 288
231.147 103
232.9642 474
240.1708 126
243.1468 215
247.1457 166
247.2465 111
249.1623 271
250.0241 191
250.9751 120
255.0663 211
255.1473 279
256.0755 275
257.0693 145
257.1994 270
258.0699 133
258.1831 741
259.0141 182
262.1608 187
262.9177 109
264.9111 139
264.9626 383
265.1582 5224
266.163 883
267.1654 147
272.1012 124
273.0536 3429
273.1646 106
274.0558 327
274.9954 1118
275.2144 654
279.1903 136
282.976 150
286.9773 476
290.0302 329
290.1869 156
290.7007 199
290.9403 155
291.0693 142
291.2757 115
293.005 147
293.1568 2531
294.1598 487
304.946 335
304.9901 158
306.9418 487
307.056 713
308.0481 194
308.6897 239
308.9444 232
318.2267 336
325.0161 109
325.6645 124
328.215 187
331.9672 206
332.9578 1694
333.9608 265
334.1069 129
334.19 224
334.8958 367
334.9566 647
336.0393 233
339.0403 115
340.1889 144
340.2195 215
341.0802 171
342.2196 229
342.994 149
348.2174 143
349.0298 119
350.9723 1742
351.9739 186
352.1907 298
352.7234 181
352.911 272
352.9737 664
354.2342 129
354.8654 411
355.2177 417
355.2764 142
358.0291 181
359.1689 181
359.253 148
359.6693 149
363.6945 220
367.6611 186
369.1896 141
372.2461 575
372.8799 238
376.6696 202
378.6925 142
383.0664 141
383.2104 108
384.2091 284
387.7046 225
389.276 1671
390.2595 342
393.0037 522
393.2282 981
394.0076 278
394.2342 229
394.9361 171
395.0068 255
395.2357 142
396.0079 108
396.1906 128
396.8953 393
397.1901 217
397.3371 261
398.1906 119
401.2804 239
403.6965 1007
404.2006 494
404.7011 168
411.5327 159
415.2252 153
424.7028 207
427.2738 116
427.2885 291
427.7211 450
428.2253 214
430.7617 229
432.2916 153
432.729 536
433.2297 204
433.8951 119
435.2646 190
435.7685 261
437.2507 170
437.7507 171
439.2873 221
441.2894 550
441.7889 223
442.2572 111
443.257 173
447.2852 128
451.2544 165
451.7071 135
451.7352 147
452.2812 140
452.7818 236
453.2551 399
453.2782 131
453.3506 145
454.237 117
454.2667 595
454.2814 197
454.3141 166
454.7434 612
455.0907 138
455.2518 310
457.2418 239
457.2654 157
459.5436 118
460.2644 846
460.7659 286
461.2672 148
463.244 115
463.578 123
465.2515 173
465.2782 109
466.252 285
466.7471 147
467.9048 260
468.2373 156
468.2654 110
468.5737 103
470.2029 129
470.2502 141
470.2836 136
470.5844 174
470.9136 127
471.2689 146
472.1924 135
472.5262 143
473.2433 624
473.7436 547
474.2419 219
475.8968 282
476.2323 166
476.5959 465
476.926 334
477.7892 229
477.9268 123
478.2858 124
478.7582 131
479.2424 255
479.7523 191
481.7549 304
482.2573 159
482.7426 272
483.2395 137
483.7948 166
484.302 115
485.2276 580
485.7304 242
486.2282 107
486.2909 235
486.6279 195
487.2878 262
487.3094 210
487.7557 706
488.257 418
488.7597 181
491.2743 295
493.2532 116
494.7512 146
494.8253 267
495.3261 158
495.6296 118
496.2704 204
496.6393 129
496.7687 174
496.9724 117
497.2389 272
497.7543 1086
498.2527 724
498.7556 258
499.7746 117
500.2776 249
500.9694 138
501.3074 156
501.6337 210
501.9659 162
502.648 132
506.284 362
506.7783 235
507.8273 119
509.9795 312
510.3152 201
510.6404 105
511.2634 216
513.813 368
514.323 226
514.8163 132
515.2965 120
515.7702 126
515.9746 131
516.3212 601
516.8307 945
517.3347 459
517.8303 149
518.3924 106
519.3357 269
519.5872 325
519.9243 285
520.0614 127
520.2601 244
524.651 176
524.7839 277
524.9872 124
525.2843 142
526.2671 143
526.7783 141
527.3134 266
527.8203 197
528.2992 378
528.8032 261
529.3038 129
529.6414 180
529.7755 809
529.9559 379
530.2755 551
530.2932 348
530.6219 307
530.7768 285
530.9493 118
531.2843 121
532.6576 131
535.6251 172
535.779 453
535.9642 162
536.2734 286
536.3324 156
536.3657 1879
536.7895 173
537.33 347
537.366 683
537.7982 465
537.8309 378
538.2985 341
538.37 155
538.7951 182
539.3062 198
539.7985 332
540.2968 173
542.0047 1301
542.337 1574
542.3562 252
542.6713 998
542.7918 136
543.002 378
543.3503 139
544.4452 126
544.7778 442
544.8335 285
545.3069 248
545.6173 124
545.7927 147
545.8175 144
546.3429 2301
546.8012 1404
546.8444 1347
547.3065 974
547.3459 395
547.8082 470
548.0119 130
548.3199 723
548.8163 385
550.0076 106
550.3444 194
550.6785 276
550.7879 296
551.0111 216
551.2916 321
551.8006 203
552.3282 171
552.831 132
553.8089 183
554.3096 123
555.336 137
555.8273 295
556.0106 1086
556.3446 1712
556.6795 2013
556.7998 363
557.0139 1544
557.3454 959
557.6828 385
557.7959 123
557.8333 201
558.012 174
559.7989 1108
560.3033 829
560.8142 485
560.9499 193
561.2918 210
561.3104 202
561.6305 113
562.0154 5256
562.3491 5263
562.6865 2798
562.8302 101
563.0246 984
563.3482 364
563.6922 202
564.3512 223
564.8529 124
565.0063 129
565.7978 1135
566.2991 885
566.8016 434
567.3006 141
567.6778 114
567.8321 106
568.3352 183
568.8235 575
569.3333 2813
569.8333 990
570.3175 121
570.6918 631
571.0186 792
571.3574 556
571.6882 294
571.8632 148
572.0221 144
572.3506 224
572.8401 167
573.0231 345
573.3579 374
573.3765 203
573.6897 248
574.3839 123
574.6848 150
574.8052 1163
574.8597 586
575.3163 318
575.3193 1079
575.3626 322
575.4247 194
575.822 686
576.3464 296
576.4318 111
576.6944 1539
576.824 125
576.8639 407
577.0287 1588
577.2717 281
577.3503 948
577.3651 621
577.4006 240
577.7013 268
577.8331 390
578.0324 129
578.3436 9250
578.8454 1746
585.8635 240
586.3538 196
586.8581 109
587.3245 121
607.3802 122
607.8735 156
608.3707 106
615.8829 440
616.3761 261
616.8846 129
636.8771 101
637.9012 124
645.3903 153
649.4635 387
650.4647 196
650.8819 199
651.3728 146
669.4046 401
679.4477 165
689.4645 161
690.4399 125
695.4192 279
698.9205 530
699.4196 500
699.9156 230
700.4349 155
706.4991 1501
707.492 562
708.4047 105
708.4921 220
709.9299 123
710.923 119
711.9242 129
719.9314 247
720.4268 341
720.9306 425
721.4306 309
721.9376 179
723.4178 121
723.9359 102
725.4304 127
725.9325 115
728.9424 1333
729.4376 1223
729.9448 655
730.4418 274
730.9407 121
738.4278 524
738.9268 362
739.4266 176
741.9492 186
742.4559 207
742.956 154
750.9572 536
751.4578 517
751.964 235
755.46 123
755.9635 179
764.4708 277
764.9744 308
765.4642 140
784.9738 104
787.4761 165
787.9811 154
793.4787 286
793.9754 335
794.4777 236
794.9732 203
795.478 185
802.4872 865
802.9775 796
803.4763 417
803.9839 143
853.5871 1513
854.5965 899
855.5927 259
883.5431 244
981.5478 444
982.6424 300
983.6513 272
END IONS
BEGIN IONS
TITLE=Spectrum 9 DRIFT_TIME= 16.3564 16.4375 16.3666 16.3724 16.6789 16.6189 16.227 16.4326 16.5089 16.8101 16.3109 16.8242 16.6717 19.57 16.7411 16.1558 16.5123 16.2717 16.5584 17.2136 17.1099 17.4051 16.4666 17.6267 16.8488 25.948 31.874298 21.0026 51.2134 91.5559 58.6698 35.4894 24.2795 75.5256 18.26 36.3229 20.2918 93.1158 78.0488 38.8943 42.1257 16.9068 29.0807 88.1259 16.8488 20.6024 30.9776 54.9555 31.077301 16.6717 25.9043 34.4176 34.2848 33.2359 33.6336 16.227 90.6709 47.4351 31.1846 27.6827 72.7189 19.2277 25.8857 40.8287 23.5573 25.9014 44.6449 40.6871 16.6189 47.5471 50.9751 27.99 38.3626 30.2354 31.601898 29.3217 16.4375 40.7619 33.2344 37.4622 42.4332 52.623 37.573 36.9662 33.7262 90.2763 35.1357 29.5669 28.3692 52.9594 36.2016 36.2508 17.2136 17.2813 38.4304 79.2792 25.9171 37.0084 30.1283 30.9409 86.2934 34.6351 25.5933 39.588 24.6252 69.0589 19.4063 92.747 26.2439 25.0319 24.764 41.2422 36.2788 27.9225 77.8984 67.8512 34.4037 22.6473 19.4983 22.1655 17.461 52.0486 26.3792 38.8121 37.0084 28.8237 26.3062 59.8235 22.1772 16.7411 76.7856 18.4915 51.4571 60.7801 16.5089 52.9272 31.925102 20.172 19.6617 50.7726 26.1727 40.2989 31.5326 66.493 18.9219 19.4367 35.9886 42.794 31.6697 72.5314 62.8508 24.2369 47.3508 88.9369 32.3325 24.3328 42.0053 80.0355 18.2034 46.1661 35.5502 16.3109 35.6853 27.5179 20.467 29.8662 39.3792 26.911 29.5155 43.1909 29.4653 59.4755 19.57 30.112 21.6101 30.2082 24.0869 16.4326 28.2048 55.577 28.1523 40.9866 66.8748 50.5248 81.1471 52.1679 32.4758 42.0079 32.3918 25.8341 54.6723 36.1677 16.8242 46.1417 27.271 57.4464 33.0759 39.1267 39.8911 46.6083 42.2638 17.6267 16.5584 35.2281 25.549 27.1494 41.9644 54.8093 38.1556 86.0944 37.5682 26.2836 16.2717 24.8008 41.9212 34.5201 45.6032 28.5689 29.9498 16.3666 42.7813 27.6965 72.6849 59.3218 33.0858 29.2363 37.5019 38.9389 50.901 29.3063 63.3199 33.5042 59.7517 43.5103 21.5799 23.6275 16.4666 28.898 45.4096 34.0028 42.7603 24.9928 27.1715 35.5722 50.0601 30.0742 30.9417 24.3277 39.9191 17.1099 31.964302 36.2417 82.1048 30.9791 36.0074 35.0213 23.9004 41.949 45.5704 65.3173 33.6967 27.78 34.9222 35.4097 24.1324 56.1868 16.3564 31.707703 36.662 50.3428 36.2701 43.2901 35.3055 36.2713 51.5257 52.1533 23.8314 43.595 29.3608 40.0945 28.1002 43.8407 23.9228 16.6675 19.9528 21.1908 30.0022 24.9347 39.0553 17.4262 46.3082 31.4463 25.1156 24.8505 33.566 67.1169 51.1531 32.2242 64.2006 24.4436 48.097 59.4509 23.563 53.1502 24.381 33.7711 77.9882 17.5187 18.8127 37.0071 36.6079 41.3642 36.3584 26.4741 38.4336 42.5345 52.7775 21.2498 40.2345 25.6983 47.6879 31.7388 56.9311 36.333 21.6846 41.1368 90.8541 26.9264 25.1747 32.603 44.6728 27.6087 22.9044 28.8997 35.6215 30.4322 22.5194 32.0329 43.728 50.2456 67.2904 27.5935 41.5303 55.9894 43.1791 28.4842 30.9224 21.4686 30.0723 40.7804 29.3214 56.2023 67.3948 25.7091 37.1817 66.3245 73.1901 47.0494 80.9391 50.9876 28.9091 29.9761 35.7302 40.7512 44.5598 85.124 39.5158 22.1387 38.4276 35.9763 62.4934 24.7742 50.9281 30.3438 22.8083 33.9677 35.0654 50.4764 33.6601 25.4328 22.9588 27.8492 47.44 28.1162 84.9301 20.4411 46.2987 28.4881 78.3685 75.3545 76.1299 73.7883 28.4881 73.7883 75.3545 76.1299 78.3685 47.0706 48.6839 57.7317 55.831 47.0706 48.6839 55.831 57.7317 27.1957 34.3373 30.5595 52.3789 27.1957 30.5595 34.3373 52.3789 39.1897 44.3693 39.1897 44.3693 78.1836 78.1836 45.4021 91.9974 45.4021 91.9974 32.8899 29.9099 27.8514 36.9333 50.1102 27.8514 29.9099 32.8899 36.9333 50.1102 36.5253 36.5253 26.4022 74.4538 26.4022 74.4538 40.8885 36.2762 48.8231 36.2762 40.8885 48.8231 28.0313 25.0202 48.2912 51.9213 25.0202 28.0313 48.2912 51.9213 23.4986 53.2025 52.3911 30.5316 43.4751 88.0719 23.4986 30.5316 43.4751 52.3911 53.2025 88.0719 30.3349 47.3876 84.5782 30.3349 47.3876 84.5782 56.2685 68.8136 68.8136 32.729 91.3754 32.729 91.3754 60.6091 36.4749 69.4661 36.4749 60.6091 69.4661 26.3091 
PEPMASS=559.2875
CHARGE=2+
55.0636 180
61.0501 569
69.0815 215
70.0765 3200
72.0925 2674
74.072 669
80.0251 835
84.0585 250
84.094 323
86.1103 4068
87.0581 272
87.1122 237
89.0742 915
99.0025 255
102.0705 336
110.045 2752
110.0883 4585
110.5469 220
111.0918 229
115.104 471
116.0905 189
120.1003 2425
121.0868 198
121.1033 231
122.1003 979
211.1533 1505
340.7198 1346
159.0444 1342
341.29 1285
684.4588 1253
454.3133 1251
285.1806 1193
197.0238 1166
601.4072 1163
136.0973 1122
454.7449 1095
145.0154 1056
680.4405 1037
543.359 1015
438.2921 1013
322.9316 1011
133.1075 1007
403.6969 1002
674.4691 988
122.1003 979
169.1619 956
529.6449 942
381.303 934
529.9765 930
89.0742 915
214.9522 915
485.2281 884
433.2319 883
307.0552 877
257.1792 844
80.0251 835
703.4722 831
382.9729 827
274.9937 812
228.1816 791
561.3484 782
159.1032 757
232.9648 735
528.3054 725
205.0567 709
330.2126 688
334.2421 674
313.24 670
74.072 669
321.2602 664
378.2367 654
342.7266 646
316.165 636
237.1727 596
264.9647 590
404.1959 575
61.0501 569
528.8032 557
270.1482 547
497.7578 547
358.9577 537
383.225 534
498.2594 531
283.1895 525
265.1656 524
662.408 524
389.7604 511
351.7331 501
232.1757 493
668.8749 493
455.2482 482
487.7605 480
115.104 471
143.1051 470
454.2675 467
641.3892 464
227.1385 452
441.2899 447
255.149 442
530.3055 441
660.4283 441
485.7315 434
215.1498 431
304.9448 417
287.2029 410
444.3734 404
166.089 398
685.4578 398
476.5953 393
214.1492 388
197.1585 387
513.8072 382
473.2489 380
328.7242 379
544.4469 377
439.2625 373
348.0299 358
199.1374 355
187.1029 354
134.9857 353
129.1228 351
396.2713 350
352.1909 347
438.7963 347
285.2375 343
259.0122 342
476.9296 340
484.2813 338
290.7067 337
102.0705 336
602.4036 332
158.1197 328
390.2818 327
457.2775 326
84.094 323
669.3766 318
403.2547 316
176.1502 313
172.1412 312
324.281 312
209.1736 311
503.3476 309
243.1899 308
443.3491 306
177.1409 305
178.0812 305
290.1938 305
554.8147 305
256.079 301
525.3276 293
438.2926 292
367.6666 290
369.2365 290
675.4676 290
249.1996 284
199.0232 283
539.8031 283
573.4081 283
147.1362 277
564.0529 276
439.2913 275
87.0581 272
283.9644 269
413.6373 268
163.0277 267
259.1356 265
306.9443 262
475.9021 262
255.0682 261
546.3032 260
423.2149 258
448.2704 257
99.0025 255
220.1428 255
179.0493 254
423.7252 253
346.6824 251
84.0585 250
400.6732 250
412.2662 249
371.7009 248
529.3072 248
481.3322 247
344.2505 246
561.4121 245
660.3655 245
282.9775 244
318.2276 243
273.0542 240
459.5475 240
382.3094 238
481.7538 238
87.1122 237
361.2463 236
363.7018 236
455.3124 234
273.1634 233
487.8397 233
506.2842 233
374.2329 232
546.8145 232
121.1033 231
111.0918 229
301.9804 228
369.1907 228
476.2379 228
514.3117 227
430.2526 225
498.7711 225
644.4264 225
394.7554 224
250.9766 223
110.5469 220
213.0421 220
497.2769 220
433.7314 218
564.3839 218
250.0305 217
306.0025 217
69.0815 215
545.8004 212
286.9751 210
562.3647 210
479.2501 208
276.9393 207
404.6965 207
452.2732 206
460.2612 205
342.2957 204
223.1933 203
483.2638 202
258.9305 201
475.2897 201
562.3504 201
152.9984 200
191.1492 200
121.0868 198
424.1653 198
552.3341 198
443.2271 197
494.8437 197
365.178 196
231.1397 194
273.2009 194
384.2587 194
424.688 193
425.6988 193
359.6797 191
506.7847 191
116.0905 189
246.9441 189
488.2588 189
632.4198 189
228.933 188
286.1863 188
390.2626 188
446.2323 188
540.2986 187
341.2327 185
441.274 185
308.0605 183
222.9356 182
439.7887 182
293.1625 181
347.176 181
426.3118 181
55.0636 180
427.7165 180
441.792 180
611.8584 180
399.2799 179
319.2392 177
430.7678 177
344.9321 176
379.2259 176
660.8677 176
187.1748 175
555.3082 173
257.0716 172
321.1647 172
343.2254 172
562.8596 172
201.1533 171
130.0876 168
169.1244 168
177.0568 168
398.1956 168
196.0275 167
488.3384 167
141.0892 166
333.2441 166
266.9593 165
301.2005 163
328.2146 163
258.1866 162
504.3226 162
645.3651 162
284.9717 161
439.3662 161
198.0242 160
305.2992 159
432.3277 159
433.895 159
669.8826 159
359.1784 158
424.7348 158
642.4073 158
141.1232 157
144.1444 157
452.7773 157
480.2343 157
530.2743 157
473.7418 155
352.7026 154
460.7666 154
516.8151 154
659.8748 154
185.1289 153
530.7831 151
330.7093 150
339.274 150
341.2214 150
415.307 150
479.2491 150
181.0478 149
344.0075 149
701.4725 149
204.9188 148
212.1515 146
424.2416 146
563.8285 146
463.5828 144
345.1773 143
405.1883 143
455.745 143
523.6432 143
136.9814 142
422.7435 142
552.8301 142
380.1883 141
505.3059 141
414.1427 140
527.3337 140
701.9111 140
341.086 139
380.7121 139
530.6284 139
325.6624 138
519.9298 138
531.2818 138
422.6686 137
431.2539 136
440.2695 136
459.8824 136
467.8009 136
507.3166 136
563.3501 136
588.3494 136
630.4395 136
639.2815 136
351.2329 135
397.6995 135
451.7562 135
503.8452 135
565.2993 135
619.399 135
300.1985 134
313.1555 134
318.9783 134
490.7331 134
501.3146 134
368.1717 133
645.8523 133
287.9873 132
411.5228 132
262.9162 131
303.9721 131
612.3507 131
251.1911 130
348.2169 130
443.843 129
333.2179 128
359.2557 128
420.141 128
645.4287 128
155.1427 127
544.3917 127
401.1823 126
545.4333 126
559.3695 126
564.3527 126
598.3809 126
401.1823 126
598.3809 126
559.3695 126
564.3527 126
545.4333 126
322.2653 125
377.2297 125
397.3248 125
702.4132 125
322.2653 125
377.2297 125
702.4132 125
397.3248 125
240.9484 124
272.9473 124
523.9661 124
654.3699 124
240.9484 124
523.9661 124
272.9473 124
654.3699 124
317.979 123
366.0138 123
317.979 123
366.0138 123
562.4033 122
562.4033 122
559.8591 121
704.4508 121
559.8591 121
704.4508 121
254.9333 120
352.238 120
372.2125 120
461.2502 120
639.7884 120
372.2125 120
352.238 120
254.9333 120
461.2502 120
639.7884 120
395.2539 119
395.2539 119
386.6874 118
531.3831 118
386.6874 118
531.3831 118
314.2448 117
385.2776 117
574.8991 117
385.2776 117
314.2448 117
574.8991 117
329.2257 115
453.5404 115
610.3623 115
651.3625 115
453.5404 115
329.2257 115
610.3623 115
651.3625 115
331.1879 114
368.2216 114
422.2196 114
515.6378 114
561.8374 114
661.4363 114
331.1879 114
515.6378 114
561.8374 114
422.2196 114
368.2216 114
661.4363 114
515.3029 112
560.3545 112
640.4079 112
515.3029 112
560.3545 112
640.4079 112
727.4269 111
523.3091 110
523.3091 110
345.2139 109
663.3972 109
345.2139 109
663.3972 109
437.2744 105
456.8206 105
522.3225 105
456.8206 105
437.2744 105
522.3225 105
357.6888 101
END IONS
